wavelength	0.0	10.0	20.0	30.0	40.0	50.0	60.0	70.0
251.0	0.2936	0.298879	0.315123	0.343845	0.388042	0.451898	0.540073	0.657364	
252.0	0.292692	0.29793	0.314081	0.342731	0.386926	0.450855	0.539162	0.656648	
253.0	0.291745	0.29695	0.313031	0.341636	0.38585	0.449861	0.538302	0.655976	
254.0	0.290782	0.295961	0.311991	0.340569	0.384815	0.448913	0.537488	0.655345	
255.0	0.289833	0.294992	0.310983	0.339549	0.383835	0.448021	0.536726	0.65476	
256.0	0.288918	0.29406	0.310022	0.338584	0.382914	0.447188	0.536018	0.654221	
257.0	0.288047	0.293176	0.309115	0.337679	0.382052	0.44641	0.535361	0.653725	
258.0	0.287228	0.292345	0.308264	0.33683	0.381246	0.445682	0.534748	0.653268	
259.0	0.286402	0.291508	0.307407	0.335974	0.380423	0.444927	0.534099	0.652776	
260.0	0.28559	0.290685	0.306566	0.335131	0.379607	0.44417	0.533442	0.652274	
261.0	0.284799	0.289884	0.305746	0.334308	0.378809	0.443429	0.532799	0.651785	
262.0	0.284015	0.28909	0.304937	0.333497	0.378023	0.442699	0.532167	0.651306	
263.0	0.283231	0.288298	0.304131	0.332692	0.377244	0.441976	0.531543	0.650835	
264.0	0.282272	0.287331	0.303148	0.331705	0.376277	0.441065	0.530742	0.650217	
265.0	0.280629	0.285673	0.301454	0.329975	0.374539	0.439376	0.529204	0.648982	
266.0	0.278992	0.284021	0.299768	0.328258	0.372814	0.437701	0.527682	0.647763	
267.0	0.277362	0.282378	0.298095	0.326555	0.371106	0.436044	0.526179	0.646561	
268.0	0.275744	0.280747	0.296435	0.324867	0.369414	0.434405	0.524694	0.645376	
269.0	0.274137	0.279129	0.29479	0.323196	0.36774	0.432785	0.523229	0.644209	
270.0	0.272538	0.277519	0.293154	0.321534	0.366074	0.43117	0.521768	0.643044	
271.0	0.270949	0.275921	0.29153	0.319884	0.364419	0.429564	0.520313	0.641885	
272.0	0.269379	0.274341	0.289926	0.318256	0.362785	0.427981	0.518883	0.640746	
273.0	0.267828	0.272781	0.288343	0.316648	0.361174	0.426421	0.517477	0.639631	
274.0	0.266297	0.27124	0.28678	0.315062	0.359585	0.424886	0.516096	0.638539	
275.0	0.264786	0.26972	0.285239	0.313499	0.358021	0.423376	0.514743	0.637472	
276.0	0.262758	0.267677	0.283154	0.311366	0.355865	0.421274	0.512837	0.635947	
277.0	0.260211	0.265107	0.280523	0.308659	0.353112	0.418575	0.510371	0.633958	
278.0	0.257684	0.262557	0.277912	0.305972	0.350379	0.415896	0.507926	0.631988	
279.0	0.255179	0.260028	0.275322	0.303306	0.347667	0.413238	0.505503	0.630037	
280.0	0.252696	0.257523	0.272755	0.300663	0.344977	0.410603	0.503103	0.628106	
281.0	0.250237	0.255041	0.270211	0.298042	0.342311	0.407991	0.500727	0.626194	
282.0	0.247672	0.252452	0.267556	0.295305	0.339525	0.405264	0.498248	0.624201	
283.0	0.244605	0.249353	0.264373	0.29202	0.336181	0.401994	0.495278	0.621812	
284.0	0.24155	0.246266	0.261202	0.288744	0.332845	0.398731	0.492314	0.619427	
285.0	0.238508	0.243192	0.258041	0.285478	0.329516	0.395475	0.489357	0.617047	
286.0	0.23548	0.240131	0.254893	0.282221	0.326195	0.392225	0.486406	0.614669	
287.0	0.232465	0.237083	0.251756	0.278974	0.32288	0.38898	0.483458	0.612293	
288.0	0.229464	0.234048	0.248629	0.275734	0.319571	0.385739	0.480515	0.609918	
289.0	0.22566	0.230198	0.244655	0.271604	0.315339	0.381581	0.47672	0.606839	
290.0	0.2215	0.225985	0.2403	0.267071	0.310686	0.377	0.47253	0.603431	
291.0	0.217329	0.22176	0.235929	0.262515	0.306004	0.372385	0.468307	0.599992	
292.0	0.213147	0.217522	0.231542	0.257936	0.301293	0.367741	0.464054	0.596526	
293.0	0.208955	0.213274	0.227139	0.253337	0.296557	0.363068	0.459776	0.593034	
294.0	0.204754	0.209014	0.222722	0.248718	0.291797	0.35837	0.455474	0.589522	
295.0	0.200545	0.204746	0.218292	0.244082	0.287015	0.353651	0.451155	0.585992	
296.0	0.19482	0.198935	0.212244	0.237726	0.280425	0.347102	0.445108	0.581011	
297.0	0.188687	0.192706	0.205752	0.230886	0.273314	0.340016	0.438547	0.575588	
298.0	0.182528	0.186447	0.19922	0.223993	0.266134	0.332851	0.431903	0.570084	
299.0	0.176047	0.179861	0.19235	0.216752	0.25861	0.325368	0.424989	0.564365	
300.0	0.168255	0.171956	0.184142	0.208175	0.249811	0.316751	0.417146	0.557949	
301.0	0.160341	0.163923	0.175794	0.199441	0.24084	0.307953	0.409123	0.551361	
302.0	0.152322	0.155782	0.167325	0.19057	0.231712	0.298985	0.400921	0.544595	
303.0	0.143995	0.14735	0.158623	0.18158	0.222647	0.290296	0.393164	0.538301	
304.0	0.135368	0.13863	0.149678	0.172437	0.213568	0.28175	0.385665	0.532277	
305.0	0.126598	0.129766	0.140588	0.163148	0.204341	0.273049	0.377989	0.526056	
306.0	0.117715	0.120787	0.131377	0.153729	0.194969	0.264176	0.370099	0.519588	
307.0	0.108988	0.11202	0.122556	0.145016	0.186729	0.256861	0.364003	0.51481	
308.0	0.100236	0.103241	0.113763	0.136397	0.178664	0.249774	0.358129	0.51019	
309.0	0.091473	0.094457	0.104983	0.127818	0.170662	0.242747	0.352265	0.50552	
310.0	0.08274	0.085709	0.096256	0.119316	0.162754	0.2358	0.346427	0.500815	
311.0	0.07192	0.074957	0.085815	0.109667	0.154535	0.22946	0.341879	0.497607	
312.0	0.064233	0.067446	0.078922	0.104021	0.150795	0.227906	0.342049	0.498515	
313.0	0.059938	0.063447	0.075885	0.102721	0.151885	0.231443	0.347158	0.50366	
314.0	0.056747	0.060661	0.074383	0.103452	0.15555	0.237939	0.355249	0.511365	
315.0	0.05724	0.061982	0.078238	0.111483	0.168699	0.255567	0.374786	0.529058	
316.0	0.061733	0.067411	0.086454	0.124043	0.186174	0.276786	0.396786	0.548058	
317.0	0.069372	0.075977	0.097703	0.139248	0.205468	0.298645	0.418262	0.56583	
318.0	0.081275	0.08896	0.11373	0.159536	0.22977	0.324879	0.443031	0.585679	
319.0	0.106816	0.116077	0.145112	0.196409	0.271012	0.366966	0.481123	0.615307	
320.0	0.133733	0.144171	0.176232	0.230966	0.307493	0.40223	0.511499	0.637916	
321.0	0.157773	0.168936	0.202741	0.259115	0.335848	0.428418	0.533078	0.653341	
322.0	0.184636	0.196357	0.231405	0.28864	0.36468	0.454283	0.553853	0.667909	
323.0	0.220686	0.232848	0.26874	0.326085	0.400327	0.485596	0.578664	0.685259	
324.0	0.256323	0.2686	0.304491	0.360909	0.43249	0.51305	0.599917	0.699967	
325.0	0.284887	0.297046	0.332394	0.387389	0.456236	0.532705	0.614735	0.710124	
326.0	0.314474	0.326383	0.360848	0.414005	0.479765	0.551986	0.629297	0.720308	
327.0	0.349227	0.360745	0.39394	0.444694	0.506732	0.574146	0.64636	0.732651	
328.0	0.386391	0.397423	0.429078	0.477054	0.535024	0.597477	0.664668	0.746291	
329.0	0.423632	0.434146	0.464164	0.509241	0.563123	0.62081	0.683351	0.760572	
330.0	0.460511	0.470514	0.498902	0.541108	0.591031	0.644257	0.702533	0.77553	
331.0	0.497892	0.5074	0.534202	0.573622	0.619783	0.668875	0.723194	0.791922	
332.0	0.53542	0.544453	0.569747	0.60657	0.649309	0.694714	0.745398	0.809735	
333.0	0.561369	0.570062	0.594312	0.629424	0.670024	0.713233	0.761727	0.823065	
334.0	0.579661	0.588105	0.611622	0.645603	0.684884	0.72682	0.774009	0.833249	
335.0	0.596748	0.604958	0.627804	0.660786	0.69894	0.739795	0.785789	0.842973	
336.0	0.612868	0.620854	0.643067	0.675139	0.7123	0.752202	0.797065	0.85223	
337.0	0.62789	0.635658	0.657272	0.688509	0.724787	0.76384	0.807641	0.86087	
338.0	0.641857	0.649413	0.67045	0.700906	0.736378	0.774658	0.817455	0.868853	
339.0	0.654839	0.662187	0.682664	0.712374	0.747091	0.784647	0.826492	0.876173	
340.0	0.666528	0.673675	0.693619	0.722631	0.756656	0.793558	0.834541	0.88268	
341.0	0.676542	0.683504	0.702959	0.731343	0.764764	0.801112	0.841369	0.888208	
342.0	0.685868	0.692645	0.711614	0.739373	0.772189	0.807978	0.847532	0.893176	
343.0	0.694568	0.701162	0.719647	0.746778	0.778979	0.814199	0.853068	0.897616	
344.0	0.702702	0.709113	0.727114	0.753613	0.785184	0.81982	0.858017	0.901561	
345.0	0.709923	0.716162	0.733704	0.759597	0.790557	0.824623	0.862197	0.904874	
346.0	0.716466	0.72254	0.739638	0.76494	0.795294	0.828793	0.865772	0.907684	
347.0	0.722648	0.728557	0.745211	0.769914	0.799644	0.832556	0.868941	0.910147	
348.0	0.728501	0.734246	0.750456	0.774554	0.803643	0.835946	0.871737	0.912289	
349.0	0.734061	0.739643	0.755409	0.778896	0.807329	0.839003	0.874196	0.91414	
350.0	0.739358	0.744778	0.760103	0.782976	0.81074	0.841767	0.876359	0.915734	
351.0	0.744418	0.749678	0.764565	0.786823	0.813907	0.844274	0.878261	0.917101	
352.0	0.749263	0.754367	0.76882	0.790464	0.816863	0.846557	0.879938	0.918271	
353.0	0.753914	0.758863	0.772889	0.793922	0.819633	0.848647	0.881421	0.919272	
354.0	0.758386	0.763184	0.77679	0.797219	0.822243	0.850573	0.88274	0.920129	
355.0	0.762513	0.767168	0.780378	0.800233	0.824597	0.852267	0.883853	0.920819	
356.0	0.766465	0.770983	0.783808	0.803103	0.826818	0.853834	0.884849	0.921409	
357.0	0.770301	0.774684	0.787133	0.805876	0.82895	0.855316	0.885763	0.92193	
358.0	0.774026	0.778279	0.790359	0.808563	0.831004	0.856727	0.886613	0.922397	
359.0	0.777647	0.781772	0.793494	0.811169	0.832988	0.858078	0.887409	0.922818	
360.0	0.781166	0.785167	0.79654	0.813699	0.834908	0.859373	0.888158	0.923201	
361.0	0.784588	0.788469	0.799502	0.816156	0.836768	0.860619	0.888865	0.923549	
362.0	0.787918	0.791682	0.802384	0.818547	0.838574	0.861821	0.889536	0.923866	
363.0	0.791162	0.794812	0.805192	0.820876	0.84033	0.862984	0.890174	0.924156	
364.0	0.794325	0.797864	0.807932	0.823149	0.842042	0.864112	0.890785	0.924423	
365.0	0.796245	0.799702	0.809537	0.824406	0.842888	0.864539	0.890865	0.924324	
366.0	0.795447	0.79888	0.80865	0.823431	0.841826	0.863424	0.889786	0.923438	
367.0	0.794694	0.798104	0.80781	0.822504	0.840812	0.862358	0.88875	0.922583	
368.0	0.793989	0.797376	0.807018	0.821626	0.839849	0.86134	0.887758	0.921759	
369.0	0.793336	0.7967	0.80628	0.820802	0.838939	0.860375	0.88681	0.920967	
370.0	0.792743	0.796084	0.805602	0.82004	0.838091	0.859469	0.885915	0.920211	
371.0	0.792215	0.795533	0.804991	0.819346	0.837313	0.858631	0.88508	0.9195	
372.0	0.791755	0.795053	0.804452	0.818726	0.83661	0.857866	0.88431	0.918837	
373.0	0.791368	0.794645	0.803987	0.818183	0.835986	0.857179	0.883612	0.918228	
374.0	0.791054	0.79431	0.803598	0.817719	0.835443	0.856574	0.882986	0.917674	
375.0	0.790815	0.794052	0.803287	0.817336	0.834984	0.856051	0.882437	0.917179	
376.0	0.791405	0.794608	0.80375	0.81766	0.835146	0.856048	0.882289	0.91696	
377.0	0.79379	0.796925	0.805874	0.819493	0.836618	0.857117	0.882955	0.917293	
378.0	0.796188	0.799259	0.808022	0.821359	0.838133	0.858236	0.883669	0.917664	
379.0	0.7986	0.801608	0.810193	0.823257	0.839689	0.859403	0.88443	0.91807	
380.0	0.801025	0.803973	0.812385	0.825186	0.841285	0.860615	0.885233	0.91851	
381.0	0.803455	0.806345	0.81459	0.827136	0.84291	0.86186	0.886069	0.918975	
382.0	0.805882	0.808716	0.8168	0.829097	0.844555	0.86313	0.886927	0.919458	
383.0	0.8083	0.811078	0.819007	0.831063	0.84621	0.864413	0.887799	0.91995	
384.0	0.810701	0.813427	0.821204	0.833025	0.847869	0.865704	0.888676	0.920445	
385.0	0.813083	0.815757	0.823387	0.834979	0.849524	0.866995	0.889553	0.920938	
386.0	0.815441	0.818065	0.825551	0.83692	0.851171	0.86828	0.890425	0.921425	
387.0	0.817771	0.820347	0.827693	0.838843	0.852806	0.869556	0.891286	0.921901	
388.0	0.820421	0.822942	0.830131	0.841036	0.854675	0.871023	0.892289	0.922469	
389.0	0.823374	0.825836	0.832852	0.843487	0.856767	0.872669	0.893423	0.923122	
390.0	0.826279	0.828683	0.83553	0.845898	0.858825	0.874287	0.89453	0.92375	
391.0	0.829134	0.831481	0.838163	0.848271	0.860851	0.875876	0.895611	0.924353	
392.0	0.831944	0.834234	0.840755	0.850608	0.862847	0.877441	0.896669	0.924934	
393.0	0.834718	0.836954	0.843317	0.852921	0.864827	0.878996	0.897719	0.925505	
394.0	0.837474	0.839657	0.845867	0.85523	0.86681	0.880561	0.898779	0.926079	
395.0	0.840225	0.842358	0.84842	0.857549	0.868813	0.882153	0.899865	0.926668	
396.0	0.842984	0.845068	0.850987	0.859891	0.87085	0.883786	0.90099	0.927281	
397.0	0.845762	0.847798	0.853581	0.862269	0.872933	0.885474	0.902166	0.92793	
398.0	0.848567	0.850559	0.856212	0.864694	0.875075	0.887229	0.903406	0.928621	
399.0	0.851411	0.853359	0.85889	0.867177	0.877287	0.889064	0.904721	0.929364	
400.0	0.854301	0.856209	0.861624	0.869727	0.879581	0.890989	0.906121	0.930165	
401.0	0.856672	0.858554	0.863893	0.871876	0.88155	0.892668	0.907334	0.930823	
402.0	0.859112	0.860971	0.866242	0.874117	0.883627	0.894463	0.908652	0.931549	
403.0	0.861631	0.863469	0.868681	0.876461	0.885821	0.896385	0.910085	0.932348	
404.0	0.86424	0.866059	0.871221	0.87892	0.888148	0.898451	0.911645	0.933224	
405.0	0.866951	0.868756	0.873876	0.88151	0.890623	0.900672	0.91334	0.934177	
406.0	0.86976	0.871554	0.876642	0.884225	0.893239	0.903041	0.915153	0.93518	
407.0	0.872657	0.874442	0.879508	0.887054	0.895984	0.905542	0.917064	0.936206	
408.0	0.875639	0.877419	0.882472	0.889995	0.898856	0.908172	0.919066	0.937235	
409.0	0.87871	0.880488	0.885537	0.893052	0.901859	0.910933	0.92115	0.938242	
410.0	0.881881	0.88366	0.888717	0.896239	0.905007	0.913838	0.923316	0.939202	
411.0	0.885172	0.886956	0.892029	0.899574	0.908319	0.916899	0.925562	0.940075	
412.0	0.88861	0.890403	0.895504	0.903087	0.911818	0.920132	0.927878	0.940805	
413.0	0.892229	0.894035	0.899172	0.906804	0.915527	0.923543	0.930234	0.941297	
414.0	0.896422	0.898235	0.903396	0.911052	0.91972	0.927346	0.932765	0.941563	
415.0	0.900993	0.902811	0.907984	0.915636	0.924198	0.931331	0.935224	0.941276	
416.0	0.905742	0.907559	0.912721	0.920325	0.928705	0.935215	0.937276	0.939992	
417.0	0.910485	0.912285	0.917387	0.924861	0.932951	0.938682	0.938547	0.937181	
418.0	0.91482	0.916579	0.921557	0.92881	0.936514	0.941336	0.938594	0.9322	
419.0	0.918161	0.919864	0.924681	0.931686	0.938997	0.942848	0.937026	0.924387	
420.0	0.920073	0.921733	0.926437	0.933281	0.940304	0.943162	0.933648	0.913185	
421.0	0.920537	0.922196	0.926903	0.933745	0.940609	0.942404	0.928338	0.898036	
422.0	0.919959	0.921659	0.92648	0.933446	0.940211	0.940744	0.920916	0.878392	
423.0	0.91891	0.920673	0.925653	0.932775	0.939392	0.938313	0.911096	0.853864	
424.0	0.917846	0.919666	0.924783	0.932004	0.938333	0.935149	0.898441	0.824555	
425.0	0.917006	0.918862	0.924057	0.931274	0.937118	0.931203	0.882376	0.791489	
426.0	0.916461	0.91833	0.923532	0.930631	0.935767	0.926363	0.862224	0.756985	
427.0	0.916191	0.918049	0.923195	0.930062	0.934247	0.920442	0.837263	0.724639	
428.0	0.915993	0.917827	0.92287	0.929414	0.932409	0.913164	0.807145	0.698863	
429.0	0.915812	0.917609	0.922512	0.928648	0.930191	0.904279	0.771894	0.682472	
430.0	0.915742	0.91749	0.922213	0.927845	0.92763	0.893548	0.731889	0.675934	
431.0	0.915741	0.917432	0.921939	0.92697	0.92466	0.880635	0.688677	0.678177	
432.0	0.915778	0.917401	0.921659	0.925994	0.921207	0.865157	0.644928	0.686981	
433.0	0.915828	0.917376	0.921354	0.924889	0.917195	0.846702	0.604228	0.69992	
434.0	0.91587	0.917335	0.921	0.923627	0.912529	0.824793	0.57038	0.714981	
435.0	0.915888	0.917263	0.92058	0.922173	0.907086	0.798926	0.546538	0.730751	
436.0	0.915868	0.917143	0.920072	0.920489	0.900716	0.768653	0.53438	0.74632	
437.0	0.915799	0.916963	0.91946	0.918535	0.893255	0.733742	0.533691	0.761142	
438.0	0.91567	0.916713	0.918726	0.916271	0.884509	0.694291	0.542676	0.774949	
439.0	0.915469	0.916378	0.917851	0.913646	0.874254	0.650993	0.558744	0.787629	
440.0	0.915188	0.915948	0.916816	0.910608	0.862234	0.605301	0.579235	0.799182	
441.0	0.914817	0.915413	0.915604	0.907101	0.848168	0.559573	0.601895	0.809654	
442.0	0.914347	0.91476	0.914191	0.903056	0.831734	0.516896	0.625082	0.819129	
443.0	0.913835	0.914043	0.912616	0.898447	0.812548	0.480291	0.647981	0.827853	
444.0	0.913464	0.913439	0.911027	0.893307	0.789959	0.452024	0.67081	0.836344	
445.0	0.912955	0.912672	0.909152	0.887334	0.763645	0.436027	0.692087	0.844042	
446.0	0.912294	0.911722	0.906953	0.880394	0.733222	0.432898	0.71164	0.851031	
447.0	0.911466	0.910573	0.904392	0.872341	0.698446	0.441439	0.729454	0.857391	
448.0	0.910456	0.909205	0.901424	0.863002	0.659322	0.459241	0.745605	0.863191	
449.0	0.909246	0.907592	0.897997	0.852173	0.616263	0.483441	0.760213	0.868495	
450.0	0.907816	0.905711	0.894051	0.839616	0.570233	0.511349	0.773428	0.87336	
451.0	0.906142	0.903529	0.889514	0.82506	0.522986	0.540778	0.785388	0.877833	
452.0	0.904195	0.901008	0.884298	0.808189	0.477064	0.570157	0.796228	0.881957	
453.0	0.901943	0.898107	0.878309	0.78866	0.435624	0.59846	0.806072	0.885768	
454.0	0.899346	0.894772	0.871423	0.766092	0.402027	0.625089	0.81503	0.889297	
455.0	0.896365	0.890953	0.863515	0.740125	0.379088	0.649752	0.823202	0.892573	
456.0	0.89295	0.886581	0.854424	0.710409	0.368474	0.672364	0.830674	0.89562	
457.0	0.889047	0.881584	0.843974	0.676704	0.370288	0.692962	0.837523	0.898459	
458.0	0.884585	0.875867	0.831946	0.638921	0.383203	0.711664	0.843817	0.90111	
459.0	0.879496	0.869339	0.818112	0.597316	0.404874	0.728611	0.849616	0.903589	
460.0	0.873696	0.861887	0.802236	0.552727	0.432449	0.743873	0.854935	0.905892	
461.0	0.867089	0.853379	0.784011	0.506364	0.463469	0.757691	0.85985	0.908049	
462.0	0.859549	0.843646	0.763086	0.460134	0.495928	0.770243	0.864413	0.910076	
463.0	0.850947	0.832513	0.739137	0.416685	0.528267	0.781657	0.868656	0.911983	
464.0	0.841125	0.819768	0.711818	0.379012	0.559472	0.792064	0.872611	0.91378	
465.0	0.829894	0.805165	0.680836	0.350107	0.588916	0.80157	0.876304	0.915474	
466.0	0.817053	0.788441	0.646013	0.332266	0.616278	0.810273	0.879759	0.917073	
467.0	0.802363	0.769296	0.607355	0.326624	0.64145	0.81826	0.882997	0.918584	
468.0	0.785553	0.747404	0.565166	0.332925	0.664457	0.825608	0.886036	0.920013	
469.0	0.766327	0.722434	0.520211	0.34967	0.685399	0.832383	0.888894	0.921364	
470.0	0.744355	0.694056	0.473811	0.374569	0.704425	0.838645	0.891586	0.922644	
471.0	0.719311	0.662012	0.427976	0.405047	0.721693	0.844445	0.894124	0.923856	
472.0	0.690875	0.626151	0.385304	0.438695	0.737366	0.849829	0.896521	0.925004	
473.0	0.658785	0.586536	0.348763	0.473522	0.751605	0.854836	0.898787	0.926093	
474.0	0.622877	0.543538	0.321221	0.508058	0.764562	0.859504	0.900932	0.927124	
475.0	0.58323	0.498032	0.304913	0.54128	0.776366	0.863861	0.902963	0.928102	
476.0	0.540208	0.451444	0.300906	0.572593	0.787144	0.867938	0.904891	0.929029	
477.0	0.494682	0.40593	0.30899	0.60163	0.796955	0.871726	0.906699	0.929895	
478.0	0.448475	0.364825	0.328051	0.627822	0.805508	0.874985	0.908221	0.930595	
479.0	0.403584	0.330637	0.354896	0.651662	0.81335	0.878045	0.909666	0.931254	
480.0	0.362625	0.306004	0.386949	0.673294	0.820559	0.88092	0.911037	0.931875	
481.0	0.328457	0.29279	0.421841	0.692888	0.827201	0.883628	0.912341	0.932459	
482.0	0.303707	0.291669	0.45764	0.710627	0.833334	0.886181	0.913581	0.933008	
483.0	0.290245	0.302016	0.492924	0.726692	0.839009	0.888592	0.914761	0.933523	
484.0	0.288783	0.322139	0.526751	0.741258	0.844274	0.890871	0.915885	0.934006	
485.0	0.298765	0.349707	0.55855	0.754484	0.849167	0.89303	0.916956	0.934457	
486.0	0.318556	0.382224	0.588033	0.766513	0.853723	0.895076	0.917977	0.934877	
487.0	0.34588	0.417426	0.615124	0.777477	0.857976	0.897018	0.918951	0.935269	
488.0	0.378265	0.453449	0.639859	0.787491	0.861953	0.898864	0.919881	0.935632	
489.0	0.413435	0.488923	0.662355	0.796657	0.865677	0.900621	0.92077	0.935968	
490.0	0.449529	0.522933	0.682776	0.805067	0.869172	0.902295	0.92162	0.936277	
491.0	0.485154	0.554922	0.701297	0.812801	0.872458	0.903891	0.922432	0.936562	
492.0	0.519364	0.584612	0.718094	0.819928	0.875553	0.905416	0.923211	0.936822	
493.0	0.551584	0.611914	0.733339	0.826512	0.878472	0.906874	0.923956	0.937059	
494.0	0.581519	0.636867	0.747193	0.832607	0.88123	0.90827	0.924672	0.937273	
495.0	0.609067	0.659583	0.759801	0.838261	0.88384	0.909608	0.92536	0.937467	
496.0	0.634451	0.680377	0.771391	0.843565	0.886338	0.910908	0.926032	0.937648	
497.0	0.659085	0.700507	0.782732	0.848891	0.888917	0.912286	0.92677	0.937875	
498.0	0.681322	0.718653	0.79305	0.853837	0.891358	0.913607	0.927482	0.938082	
499.0	0.701376	0.735027	0.802462	0.85844	0.893672	0.914876	0.928169	0.938271	
500.0	0.71946	0.749821	0.81107	0.862734	0.895871	0.916099	0.928835	0.938444	
501.0	0.735777	0.763207	0.818959	0.866747	0.897964	0.917278	0.929484	0.938606	
502.0	0.750525	0.775349	0.82621	0.870506	0.899959	0.918419	0.930118	0.938759	
503.0	0.763877	0.786387	0.832892	0.874036	0.901865	0.919525	0.930743	0.938909	
504.0	0.775984	0.79644	0.839061	0.877354	0.903688	0.920601	0.931362	0.939062	
505.0	0.786992	0.805622	0.844772	0.880483	0.905437	0.921651	0.93198	0.939224	
506.0	0.797023	0.814029	0.850072	0.883437	0.907118	0.922679	0.932605	0.939404	
507.0	0.806186	0.821745	0.855001	0.886232	0.908737	0.923691	0.933242	0.939615	
508.0	0.814576	0.828844	0.859596	0.888883	0.910301	0.924692	0.9339	0.93987	
509.0	0.822281	0.835394	0.863891	0.891403	0.911816	0.925688	0.934589	0.940187	
510.0	0.829369	0.841449	0.867911	0.893802	0.913288	0.926685	0.935322	0.940589	
511.0	0.835911	0.847063	0.871686	0.896093	0.914723	0.92769	0.936111	0.941105	
512.0	0.841962	0.85228	0.875237	0.898285	0.916127	0.928712	0.936975	0.941771	
513.0	0.847571	0.857138	0.878585	0.900388	0.917506	0.929759	0.937936	0.942635	
514.0	0.852787	0.861675	0.881749	0.902411	0.918868	0.930844	0.93902	0.943755	
515.0	0.857646	0.865922	0.884747	0.904362	0.92022	0.93198	0.940259	0.945206	
516.0	0.862185	0.869906	0.887594	0.906251	0.921569	0.933181	0.941693	0.947083	
517.0	0.866375	0.873599	0.890266	0.908059	0.922908	0.934451	0.943354	0.949472	
518.0	0.870228	0.877011	0.892766	0.909788	0.924237	0.935803	0.945284	0.95248	
519.0	0.873864	0.880244	0.895165	0.911484	0.925595	0.937286	0.947582	0.956301	
520.0	0.877303	0.883317	0.897474	0.913155	0.926993	0.938929	0.950335	0.961115	
521.0	0.880564	0.886242	0.899702	0.914808	0.928445	0.940771	0.95365	0.967108	
522.0	0.883664	0.889036	0.901859	0.916453	0.929967	0.942857	0.957654	0.974454	
523.0	0.886619	0.891712	0.903955	0.918099	0.931577	0.945242	0.962494	0.983268	
524.0	0.889442	0.894281	0.906	0.919756	0.933299	0.947995	0.968337	0.993554	
525.0	0.892149	0.896756	0.908002	0.921435	0.935158	0.951197	0.975359	1.005123	
526.0	0.89475	0.899148	0.909971	0.923151	0.937187	0.954949	0.983726	1.01755	
527.0	0.89726	0.901469	0.911919	0.924918	0.939425	0.959368	0.993555	1.030143	
528.0	0.89969	0.903728	0.913854	0.926752	0.941918	0.964594	1.004867	1.042044	
529.0	0.90205	0.905938	0.915788	0.928674	0.944722	0.970782	1.017506	1.05238	
530.0	0.904352	0.908108	0.917735	0.930707	0.947908	0.978104	1.031078	1.060475	
531.0	0.906608	0.910251	0.919707	0.932879	0.951557	0.986726	1.044904	1.065985	
532.0	0.908828	0.912377	0.921721	0.935223	0.955768	0.996779	1.058056	1.068932	
533.0	0.911027	0.914501	0.923793	0.937779	0.96066	1.008312	1.069512	1.069627	
534.0	0.913215	0.916634	0.925943	0.940593	0.966368	1.021228	1.078382	1.068534	
535.0	0.915407	0.918794	0.928196	0.943724	0.973049	1.035195	1.084127	1.066147	
536.0	0.917616	0.920995	0.930578	0.947239	0.980862	1.049578	1.086663	1.062912	
537.0	0.919862	0.923258	0.933121	0.951222	0.989965	1.063445	1.086321	1.05919	
538.0	0.92216	0.925604	0.935865	0.955769	1.000471	1.075674	1.083688	1.055247	
539.0	0.924533	0.928059	0.938855	0.960998	1.012407	1.085186	1.07943	1.05127	
540.0	0.927282	0.93092	0.9424	0.967312	1.026084	1.091644	1.074209	1.047373	
541.0	0.930182	0.933979	0.946343	0.974654	1.040806	1.094256	1.068414	1.043626	
542.0	0.933236	0.93725	0.95074	0.983166	1.055778	1.093248	1.062436	1.04008	
543.0	0.936488	0.940784	0.955692	0.993003	1.069882	1.089332	1.056549	1.03676	
544.0	0.939986	0.944645	0.961319	1.004271	1.081787	1.08339	1.05092	1.033675	
545.0	0.943792	0.948908	0.967754	1.016955	1.090251	1.076269	1.045646	1.03082	
546.0	0.947975	0.953663	0.97515	1.030826	1.094506	1.068655	1.040768	1.028187	
547.0	0.952621	0.959017	0.983659	1.045343	1.094479	1.061031	1.036293	1.025763	
548.0	0.957829	0.965089	0.993414	1.059563	1.090759	1.053712	1.032213	1.023532	
549.0	0.963715	0.972015	1.004478	1.072203	1.084331	1.046872	1.028505	1.021481	
550.0	0.970406	0.979933	1.016785	1.08187	1.076256	1.040593	1.025141	1.019595	
551.0	0.978035	0.988965	1.030027	1.087456	1.06745	1.034893	1.022091	1.017858	
552.0	0.986718	0.999176	1.043564	1.088517	1.058586	1.029759	1.019328	1.016259	
553.0	0.996524	1.010516	1.056364	1.085398	1.050096	1.025154	1.016821	1.014784	
554.0	1.007419	1.02273	1.067109	1.079045	1.042218	1.021033	1.014547	1.013424	
555.0	1.019175	1.035257	1.074479	1.070635	1.035057	1.017348	1.01248	1.012166	
556.0	1.031278	1.047169	1.077583	1.06126	1.028635	1.014055	1.010599	1.011003	
557.0	1.042861	1.057236	1.076284	1.051751	1.022922	1.01111	1.008886	1.009926	
558.0	1.052751	1.064185	1.071221	1.042646	1.017864	1.008472	1.007323	1.008927	
559.0	1.059692	1.067101	1.063511	1.034247	1.013398	1.006108	1.005895	1.008001	
560.0	1.062746	1.065785	1.054361	1.026679	1.009459	1.003985	1.004589	1.007139	
561.0	1.061647	1.060805	1.044777	1.019962	1.005983	1.002075	1.003392	1.006338	
562.0	1.0569	1.053243	1.03546	1.014056	1.002914	1.000356	1.002295	1.005592	
563.0	1.049542	1.044287	1.026815	1.00889	1.000201	0.998804	1.001286	1.004896	
564.0	1.040617	1.034824	1.018947	1.004326	0.997755	0.997366	1.000331	1.004227	
565.0	1.031128	1.02554	1.011891	1.000267	0.995519	0.996012	0.99941	1.003572	
566.0	1.022008	1.01703	1.005744	0.996725	0.993526	0.99478	0.998558	1.002958	
567.0	1.013649	1.009452	1.00042	0.993631	0.991746	0.993656	0.997768	1.002381	
568.0	1.006214	1.002825	0.995823	0.990922	0.990152	0.99263	0.997036	1.00184	
569.0	0.999723	0.997092	0.991854	0.988543	0.988722	0.991691	0.996355	1.001331	
570.0	0.994122	0.992163	0.988429	0.986451	0.987436	0.990831	0.995722	1.000852	
571.0	0.98932	0.98794	0.985467	0.984606	0.986277	0.990042	0.995132	1.000401	
572.0	0.985214	0.984321	0.982901	0.982975	0.985231	0.989316	0.994583	0.999975	
573.0	0.98171	0.981222	0.980673	0.98153	0.984286	0.988649	0.99407	0.999573	
574.0	0.978716	0.978563	0.978735	0.980248	0.983429	0.988035	0.993592	0.999194	
575.0	0.976158	0.976279	0.977045	0.979107	0.982653	0.987468	0.993144	0.998836	
576.0	0.973967	0.974312	0.975569	0.978091	0.981948	0.986945	0.992726	0.998497	
577.0	0.972089	0.972617	0.974277	0.977183	0.981306	0.986462	0.992333	0.998176	
578.0	0.970475	0.971152	0.973143	0.976373	0.980723	0.986015	0.991966	0.997872	
579.0	0.969087	0.969884	0.972148	0.975648	0.980191	0.985602	0.991622	0.997584	
580.0	0.967891	0.968786	0.971273	0.974998	0.979707	0.985219	0.991299	0.997311	
581.0	0.96686	0.967833	0.970502	0.974416	0.979265	0.984865	0.990995	0.997052	
582.0	0.96597	0.967007	0.969824	0.973894	0.978862	0.984536	0.990711	0.996806	
583.0	0.965201	0.966288	0.969226	0.973425	0.978493	0.984231	0.990443	0.996572	
584.0	0.964538	0.965665	0.968699	0.973005	0.978157	0.983948	0.990191	0.99635	
585.0	0.963966	0.965124	0.968234	0.972627	0.977849	0.983686	0.989954	0.996139	
586.0	0.963473	0.964655	0.967826	0.972289	0.977569	0.983442	0.989731	0.995938	
587.0	0.963049	0.964249	0.967466	0.971986	0.977312	0.983216	0.989522	0.995747	
588.0	0.962686	0.963899	0.967151	0.971714	0.977078	0.983005	0.989324	0.995566	
589.0	0.962376	0.963597	0.966874	0.971471	0.976864	0.98281	0.989138	0.995392	
590.0	0.962113	0.963339	0.966632	0.971254	0.97667	0.982629	0.988963	0.995227	
591.0	0.961831	0.963061	0.966367	0.97101	0.976449	0.982425	0.988769	0.99505	
592.0	0.961546	0.962778	0.966094	0.970755	0.976215	0.982209	0.988568	0.994868	
593.0	0.961295	0.962527	0.965847	0.970521	0.975998	0.982006	0.988375	0.994694	
594.0	0.961073	0.962303	0.965624	0.970306	0.975794	0.981813	0.988192	0.994526	
595.0	0.960877	0.962104	0.965422	0.970107	0.975604	0.981631	0.988017	0.994365	
596.0	0.960705	0.961928	0.965239	0.969924	0.975426	0.981459	0.98785	0.99421	
597.0	0.960554	0.961772	0.965074	0.969756	0.975259	0.981296	0.98769	0.994061	
598.0	0.960422	0.961634	0.964926	0.969601	0.975104	0.981142	0.987538	0.993918	
599.0	0.960307	0.961512	0.964791	0.969458	0.974958	0.980995	0.987392	0.993781	
600.0	0.960207	0.961405	0.964671	0.969327	0.974822	0.980857	0.987253	0.993648	
601.0	0.960121	0.961312	0.964562	0.969206	0.974694	0.980726	0.98712	0.993521	
602.0	0.960048	0.961231	0.964465	0.969095	0.974574	0.980601	0.986993	0.993398	
603.0	0.959986	0.961162	0.964379	0.968993	0.974462	0.980483	0.986871	0.99328	
604.0	0.959935	0.961102	0.964301	0.968899	0.974358	0.980371	0.986755	0.993166	
605.0	0.959893	0.961051	0.964232	0.968813	0.974259	0.980265	0.986643	0.993056	
606.0	0.959859	0.961009	0.964172	0.968734	0.974168	0.980164	0.986536	0.992951	
607.0	0.959833	0.960975	0.964118	0.968662	0.974082	0.980069	0.986434	0.992849	
608.0	0.959814	0.960948	0.964072	0.968596	0.974002	0.979978	0.986336	0.99275	
609.0	0.959802	0.960927	0.964032	0.968536	0.973926	0.979892	0.986242	0.992655	
610.0	0.959795	0.960912	0.963997	0.968482	0.973856	0.97981	0.986152	0.992564	
611.0	0.959794	0.960902	0.963968	0.968432	0.973791	0.979732	0.986065	0.992476	
612.0	0.959798	0.960898	0.963944	0.968388	0.973729	0.979659	0.985982	0.99239	
613.0	0.959806	0.960897	0.963925	0.968348	0.973672	0.979589	0.985903	0.992308	
614.0	0.959818	0.960901	0.963909	0.968312	0.973619	0.979523	0.985827	0.992228	
615.0	0.959834	0.960909	0.963898	0.968279	0.97357	0.97946	0.985754	0.992151	
616.0	0.959853	0.960921	0.963891	0.968251	0.973524	0.9794	0.985683	0.992077	
617.0	0.959876	0.960935	0.963886	0.968226	0.973481	0.979343	0.985616	0.992005	
618.0	0.959901	0.960953	0.963885	0.968204	0.973441	0.97929	0.985551	0.991935	
619.0	0.959929	0.960973	0.963887	0.968185	0.973405	0.979239	0.985489	0.991868	
620.0	0.959964	0.961001	0.963896	0.968173	0.973373	0.979192	0.985431	0.991804	
621.0	0.960043	0.96107	0.963942	0.968191	0.973366	0.979163	0.985383	0.991743	
622.0	0.960123	0.961141	0.96399	0.968212	0.973362	0.979136	0.985337	0.991685	
623.0	0.960205	0.961213	0.96404	0.968236	0.97336	0.979112	0.985294	0.99163	
624.0	0.960287	0.961287	0.964092	0.968261	0.973361	0.979091	0.985254	0.991576	
625.0	0.960372	0.961363	0.964147	0.968289	0.973363	0.979072	0.985216	0.991525	
626.0	0.960457	0.96144	0.964202	0.968319	0.973368	0.979055	0.98518	0.991476	
627.0	0.960543	0.961518	0.964259	0.96835	0.973375	0.97904	0.985146	0.991429	
628.0	0.96063	0.961597	0.964317	0.968383	0.973384	0.979027	0.985114	0.991383	
629.0	0.960718	0.961676	0.964377	0.968418	0.973395	0.979016	0.985084	0.99134	
630.0	0.960806	0.961757	0.964438	0.968454	0.973407	0.979007	0.985056	0.991298	
631.0	0.960895	0.961838	0.964499	0.968492	0.973421	0.978999	0.98503	0.991258	
632.0	0.960984	0.961919	0.964562	0.96853	0.973436	0.978993	0.985005	0.99122	
633.0	0.961073	0.962001	0.964625	0.96857	0.973452	0.978989	0.984982	0.991183	
634.0	0.961163	0.962084	0.964689	0.968611	0.97347	0.978986	0.984961	0.991148	
635.0	0.961253	0.962167	0.964754	0.968653	0.97349	0.978984	0.984941	0.991114	
636.0	0.961343	0.96225	0.964819	0.968696	0.97351	0.978984	0.984922	0.991081	
637.0	0.961433	0.962333	0.964884	0.968739	0.973531	0.978985	0.984905	0.99105	
638.0	0.961522	0.962416	0.964951	0.968783	0.973554	0.978987	0.984889	0.99102	
639.0	0.961612	0.962499	0.965017	0.968828	0.973577	0.97899	0.984874	0.990991	
640.0	0.961702	0.962583	0.965084	0.968874	0.973601	0.978995	0.984861	0.990964	
641.0	0.961791	0.962666	0.965151	0.96892	0.973626	0.979	0.984849	0.990938	
642.0	0.961881	0.962749	0.965218	0.968967	0.973652	0.979007	0.984837	0.990912	
643.0	0.96197	0.962832	0.965286	0.969014	0.973679	0.979014	0.984827	0.990888	
644.0	0.962059	0.962915	0.965353	0.969062	0.973706	0.979022	0.984818	0.990865	
645.0	0.962148	0.962998	0.965421	0.969111	0.973735	0.979031	0.98481	0.990843	
646.0	0.962236	0.963081	0.965489	0.969159	0.973763	0.979041	0.984802	0.990822	
647.0	0.962324	0.963163	0.965557	0.969208	0.973792	0.979052	0.984796	0.990802	
648.0	0.962412	0.963246	0.965625	0.969257	0.973822	0.979063	0.98479	0.990782	
649.0	0.962499	0.963328	0.965693	0.969307	0.973852	0.979075	0.984785	0.990764	
650.0	0.962586	0.963409	0.965761	0.969357	0.973883	0.979088	0.984781	0.990746	
651.0	0.962673	0.963491	0.965829	0.969406	0.973914	0.979101	0.984778	0.990729	
652.0	0.962759	0.963572	0.965896	0.969456	0.973946	0.979115	0.984776	0.990713	
653.0	0.962876	0.963683	0.965993	0.969533	0.974	0.979148	0.984788	0.990707	
654.0	0.963039	0.96384	0.966132	0.969648	0.974089	0.979208	0.984821	0.990716	
655.0	0.9632	0.963995	0.966269	0.969762	0.974176	0.979269	0.984855	0.990725	
656.0	0.96336	0.964148	0.966406	0.969875	0.974264	0.97933	0.984889	0.990734	
657.0	0.963519	0.964301	0.966542	0.969988	0.974351	0.97939	0.984923	0.990744	
658.0	0.963676	0.964452	0.966677	0.9701	0.974438	0.979451	0.984958	0.990754	
659.0	0.963831	0.964602	0.966811	0.970212	0.974524	0.979511	0.984992	0.990764	
660.0	0.963986	0.96475	0.966944	0.970323	0.97461	0.979572	0.985027	0.990775	
661.0	0.964139	0.964897	0.967076	0.970433	0.974696	0.979632	0.985062	0.990787	
662.0	0.964291	0.965044	0.967206	0.970543	0.974781	0.979692	0.985097	0.990798	
663.0	0.964441	0.965188	0.967336	0.970651	0.974866	0.979752	0.985132	0.99081	
664.0	0.96459	0.965332	0.967465	0.970759	0.974951	0.979812	0.985168	0.990823	
665.0	0.964738	0.965474	0.967593	0.970867	0.975035	0.979872	0.985203	0.990835	
666.0	0.964884	0.965616	0.96772	0.970973	0.975119	0.979932	0.985239	0.990848	
667.0	0.965029	0.965756	0.967846	0.97108	0.975202	0.979991	0.985275	0.990861	
668.0	0.965173	0.965894	0.967971	0.971185	0.975285	0.980051	0.98531	0.990874	
669.0	0.965316	0.966032	0.968094	0.97129	0.975367	0.98011	0.985346	0.990888	
670.0	0.965457	0.966168	0.968217	0.971393	0.975449	0.980169	0.985382	0.990902	
671.0	0.965597	0.966304	0.968339	0.971497	0.975531	0.980228	0.985418	0.990916	
672.0	0.965736	0.966438	0.96846	0.971599	0.975612	0.980287	0.985454	0.99093	
673.0	0.965873	0.96657	0.968581	0.971701	0.975693	0.980345	0.98549	0.990944	
674.0	0.96601	0.966702	0.9687	0.971802	0.975773	0.980403	0.985526	0.990959	
675.0	0.966145	0.966833	0.968818	0.971902	0.975853	0.980461	0.985562	0.990974	
676.0	0.966279	0.966963	0.968935	0.972002	0.975932	0.980519	0.985598	0.990989	
677.0	0.966412	0.967091	0.969051	0.972101	0.976011	0.980577	0.985633	0.991004	
678.0	0.966543	0.967218	0.969167	0.972199	0.97609	0.980634	0.985669	0.991019	
679.0	0.966674	0.967344	0.969281	0.972297	0.976168	0.980692	0.985705	0.991034	
680.0	0.966803	0.96747	0.969395	0.972394	0.976245	0.980748	0.985741	0.99105	
681.0	0.966932	0.967594	0.969508	0.97249	0.976322	0.980805	0.985777	0.991065	
682.0	0.967059	0.967717	0.96962	0.972586	0.976399	0.980862	0.985813	0.991081	
683.0	0.967185	0.967839	0.96973	0.972681	0.976475	0.980918	0.985848	0.991097	
684.0	0.96731	0.96796	0.96984	0.972775	0.976551	0.980974	0.985884	0.991113	
685.0	0.967433	0.96808	0.96995	0.972869	0.976626	0.98103	0.98592	0.991129	
686.0	0.967556	0.968199	0.970058	0.972962	0.976701	0.981085	0.985955	0.991145	
687.0	0.967678	0.968317	0.970165	0.973054	0.976776	0.98114	0.98599	0.991161	
688.0	0.967799	0.968434	0.970272	0.973146	0.976849	0.981195	0.986026	0.991178	
689.0	0.967909	0.968541	0.970369	0.973229	0.976916	0.981244	0.986057	0.991191	
690.0	0.967983	0.968612	0.970433	0.973281	0.976956	0.981271	0.986071	0.991194	
691.0	0.968056	0.968682	0.970495	0.973333	0.976996	0.981298	0.986086	0.991196	
692.0	0.968129	0.968752	0.970558	0.973385	0.977036	0.981325	0.9861	0.991199	
693.0	0.968201	0.968822	0.97062	0.973437	0.977075	0.981352	0.986115	0.991202	
694.0	0.968273	0.968891	0.970682	0.973488	0.977115	0.981379	0.986129	0.991205	
695.0	0.968344	0.968959	0.970743	0.973539	0.977154	0.981407	0.986144	0.991208	
696.0	0.968415	0.969027	0.970804	0.97359	0.977193	0.981434	0.986159	0.991211	
697.0	0.968485	0.969095	0.970865	0.973641	0.977233	0.981461	0.986174	0.991215	
698.0	0.968555	0.969162	0.970925	0.973691	0.977271	0.981488	0.986189	0.991218	
699.0	0.968624	0.969229	0.970985	0.973741	0.97731	0.981515	0.986204	0.991222	
700.0	0.968693	0.969295	0.971044	0.973791	0.977349	0.981542	0.986219	0.991226	
701.0	0.968761	0.969361	0.971104	0.973841	0.977388	0.981569	0.986234	0.99123	
702.0	0.968829	0.969426	0.971162	0.97389	0.977426	0.981595	0.986249	0.991234	
703.0	0.968896	0.969491	0.971221	0.973939	0.977464	0.981622	0.986265	0.991239	
704.0	0.968963	0.969556	0.971279	0.973988	0.977502	0.981649	0.98628	0.991243	
705.0	0.969029	0.96962	0.971337	0.974037	0.97754	0.981676	0.986296	0.991248	
706.0	0.969095	0.969684	0.971394	0.974085	0.977578	0.981703	0.986311	0.991253	
707.0	0.969161	0.969747	0.971451	0.974133	0.977616	0.981729	0.986327	0.991257	
708.0	0.969226	0.96981	0.971508	0.974181	0.977654	0.981756	0.986342	0.991262	
709.0	0.969291	0.969872	0.971564	0.974229	0.977691	0.981783	0.986358	0.991267	
710.0	0.969355	0.969934	0.97162	0.974276	0.977728	0.981809	0.986373	0.991272	
711.0	0.969419	0.969996	0.971676	0.974323	0.977765	0.981836	0.986389	0.991278	
712.0	0.969482	0.970057	0.971731	0.97437	0.977802	0.981862	0.986405	0.991283	
713.0	0.969545	0.970118	0.971787	0.974417	0.977839	0.981888	0.98642	0.991288	
714.0	0.969607	0.970179	0.971841	0.974463	0.977876	0.981915	0.986436	0.991294	
715.0	0.96967	0.970239	0.971896	0.974509	0.977912	0.981941	0.986452	0.991299	
716.0	0.969731	0.970298	0.97195	0.974555	0.977949	0.981967	0.986468	0.991305	
717.0	0.969793	0.970358	0.972004	0.974601	0.977985	0.981993	0.986483	0.991311	
718.0	0.969853	0.970417	0.972057	0.974647	0.978021	0.982019	0.986499	0.991316	
719.0	0.969914	0.970475	0.97211	0.974692	0.978057	0.982045	0.986515	0.991322	
720.0	0.969974	0.970533	0.972163	0.974737	0.978093	0.982071	0.986531	0.991328	
721.0	0.970034	0.970591	0.972215	0.974781	0.978128	0.982097	0.986546	0.991334	
722.0	0.970093	0.970649	0.972268	0.974826	0.978164	0.982123	0.986562	0.99134	
723.0	0.970152	0.970706	0.97232	0.97487	0.978199	0.982148	0.986578	0.991346	
724.0	0.970211	0.970762	0.972371	0.974914	0.978234	0.982174	0.986594	0.991353	
725.0	0.970269	0.970819	0.972422	0.974958	0.978269	0.9822	0.98661	0.991359	
726.0	0.970327	0.970875	0.972473	0.975002	0.978304	0.982225	0.986625	0.991365	
727.0	0.970384	0.970931	0.972524	0.975045	0.978339	0.98225	0.986641	0.991372	
728.0	0.970441	0.970986	0.972575	0.975089	0.978374	0.982276	0.986657	0.991378	
729.0	0.970498	0.971041	0.972625	0.975132	0.978408	0.982301	0.986673	0.991384	
730.0	0.970606	0.971147	0.972723	0.975218	0.978481	0.982358	0.986712	0.991407	
731.0	0.970736	0.971273	0.97284	0.975322	0.978568	0.982427	0.986762	0.991436	
732.0	0.970864	0.971398	0.972957	0.975426	0.978656	0.982496	0.986811	0.991465	
733.0	0.970991	0.971522	0.973073	0.975529	0.978743	0.982565	0.98686	0.991494	
734.0	0.971117	0.971645	0.973187	0.975631	0.978829	0.982633	0.986908	0.991522	
735.0	0.971242	0.971767	0.973301	0.975732	0.978914	0.9827	0.986957	0.991551	
736.0	0.971366	0.971889	0.973414	0.975832	0.978999	0.982767	0.987005	0.991579	
737.0	0.971489	0.972009	0.973526	0.975932	0.979083	0.982834	0.987052	0.991607	
738.0	0.971611	0.972128	0.973637	0.97603	0.979166	0.9829	0.9871	0.991635	
739.0	0.971732	0.972246	0.973747	0.976128	0.979249	0.982965	0.987147	0.991663	
740.0	0.971851	0.972363	0.973856	0.976225	0.979331	0.98303	0.987193	0.99169	
741.0	0.97197	0.972479	0.973964	0.976322	0.979413	0.983095	0.98724	0.991718	
742.0	0.972088	0.972594	0.974072	0.976418	0.979494	0.983159	0.987286	0.991745	
743.0	0.972205	0.972708	0.974178	0.976512	0.979574	0.983223	0.987332	0.991772	
744.0	0.972321	0.972821	0.974284	0.976607	0.979654	0.983286	0.987377	0.991799	
745.0	0.972436	0.972934	0.974389	0.9767	0.979733	0.983349	0.987422	0.991826	
746.0	0.97255	0.973045	0.974493	0.976793	0.979811	0.983411	0.987467	0.991853	
747.0	0.972663	0.973155	0.974596	0.976885	0.979889	0.983473	0.987512	0.99188	
748.0	0.972775	0.973265	0.974698	0.976976	0.979967	0.983535	0.987556	0.991906	
749.0	0.972886	0.973374	0.9748	0.977066	0.980043	0.983596	0.9876	0.991933	
750.0	0.972996	0.973482	0.974901	0.977156	0.98012	0.983657	0.987644	0.991959	
751.0	0.973106	0.973588	0.975001	0.977246	0.980195	0.983717	0.987687	0.991985	
752.0	0.973214	0.973695	0.9751	0.977334	0.98027	0.983777	0.98773	0.992011	
753.0	0.973322	0.9738	0.975198	0.977422	0.980345	0.983836	0.987773	0.992036	
754.0	0.973429	0.973904	0.975296	0.977509	0.980419	0.983895	0.987816	0.992062	
755.0	0.973535	0.974008	0.975393	0.977596	0.980492	0.983954	0.987858	0.992087	
756.0	0.97364	0.974111	0.975489	0.977681	0.980565	0.984012	0.9879	0.992113	
757.0	0.973744	0.974213	0.975584	0.977767	0.980638	0.984069	0.987942	0.992138	
758.0	0.973848	0.974314	0.975679	0.977851	0.98071	0.984127	0.987984	0.992163	
759.0	0.97395	0.974414	0.975773	0.977935	0.980781	0.984184	0.988025	0.992188	
760.0	0.974052	0.974514	0.975866	0.978019	0.980852	0.98424	0.988066	0.992212	
761.0	0.974153	0.974613	0.975958	0.978101	0.980923	0.984297	0.988107	0.992237	
762.0	0.974253	0.974711	0.97605	0.978183	0.980992	0.984352	0.988147	0.992262	
763.0	0.974353	0.974808	0.976141	0.978265	0.981062	0.984408	0.988187	0.992286	
764.0	0.974452	0.974905	0.976232	0.978346	0.981131	0.984463	0.988227	0.99231	
765.0	0.97455	0.975001	0.976321	0.978426	0.981199	0.984518	0.988267	0.992334	
766.0	0.974647	0.975096	0.97641	0.978506	0.981267	0.984572	0.988307	0.992358	
767.0	0.974743	0.97519	0.976499	0.978585	0.981334	0.984626	0.988346	0.992382	
768.0	0.974839	0.975284	0.976587	0.978664	0.981401	0.984679	0.988385	0.992405	
769.0	0.974934	0.975377	0.976674	0.978742	0.981468	0.984733	0.988424	0.992429	
770.0	0.975029	0.975469	0.97676	0.978819	0.981534	0.984786	0.988462	0.992452	
771.0	0.975122	0.975561	0.976846	0.978896	0.981599	0.984838	0.9885	0.992476	
772.0	0.975215	0.975651	0.976931	0.978972	0.981665	0.98489	0.988538	0.992499	
773.0	0.975307	0.975742	0.977016	0.979048	0.981729	0.984942	0.988576	0.992522	
774.0	0.975399	0.975831	0.9771	0.979123	0.981794	0.984994	0.988614	0.992545	
775.0	0.975488	0.975919	0.977182	0.979197	0.981856	0.985044	0.98865	0.992567	
776.0	0.975567	0.975996	0.977253	0.979261	0.98191	0.985087	0.988681	0.992585	
777.0	0.975645	0.976072	0.977325	0.979324	0.981964	0.985129	0.988711	0.992603	
778.0	0.975722	0.976148	0.977395	0.979387	0.982017	0.985171	0.988742	0.99262	
779.0	0.975799	0.976223	0.977465	0.97945	0.98207	0.985213	0.988772	0.992638	
780.0	0.975875	0.976297	0.977535	0.979512	0.982123	0.985255	0.988801	0.992656	
781.0	0.975951	0.976371	0.977604	0.979573	0.982175	0.985297	0.988831	0.992673	
782.0	0.976025	0.976444	0.977672	0.979634	0.982227	0.985338	0.988861	0.99269	
783.0	0.9761	0.976517	0.97774	0.979695	0.982278	0.985379	0.98889	0.992708	
784.0	0.976174	0.976589	0.977808	0.979755	0.982329	0.985419	0.988919	0.992725	
785.0	0.976247	0.976661	0.977875	0.979815	0.98238	0.98546	0.988948	0.992742	
786.0	0.97632	0.976732	0.977941	0.979875	0.982431	0.9855	0.988977	0.992759	
787.0	0.976392	0.976802	0.978007	0.979934	0.982481	0.985539	0.989006	0.992776	
788.0	0.976463	0.976873	0.978073	0.979992	0.98253	0.985579	0.989034	0.992793	
789.0	0.976534	0.976942	0.978138	0.98005	0.98258	0.985618	0.989062	0.992809	
790.0	0.976605	0.977011	0.978203	0.980108	0.982629	0.985657	0.98909	0.992826	
791.0	0.976675	0.97708	0.978267	0.980165	0.982677	0.985696	0.989118	0.992843	
792.0	0.976745	0.977148	0.97833	0.980222	0.982726	0.985735	0.989146	0.992859	
793.0	0.976814	0.977215	0.978394	0.980279	0.982774	0.985773	0.989174	0.992876	
794.0	0.976882	0.977282	0.978456	0.980335	0.982822	0.985811	0.989201	0.992892	
795.0	0.97695	0.977349	0.978519	0.980391	0.982869	0.985849	0.989229	0.992908	
796.0	0.977018	0.977415	0.978581	0.980446	0.982916	0.985887	0.989256	0.992925	
797.0	0.977085	0.97748	0.978642	0.980501	0.982963	0.985924	0.989283	0.992941	
798.0	0.977151	0.977545	0.978703	0.980556	0.983009	0.985961	0.98931	0.992957	
799.0	0.977217	0.97761	0.978764	0.98061	0.983056	0.985998	0.989336	0.992973	
800.0	0.977283	0.977674	0.978824	0.980664	0.983101	0.986034	0.989363	0.992989	
801.0	0.977348	0.977738	0.978883	0.980717	0.983147	0.986071	0.989389	0.993004	
802.0	0.977413	0.977801	0.978943	0.98077	0.983192	0.986107	0.989416	0.99302	
803.0	0.977477	0.977864	0.979002	0.980823	0.983237	0.986143	0.989442	0.993036	
804.0	0.977541	0.977927	0.97906	0.980876	0.983282	0.986179	0.989468	0.993051	
805.0	0.977604	0.977989	0.979118	0.980928	0.983326	0.986214	0.989493	0.993067	
806.0	0.977667	0.97805	0.979176	0.980979	0.983371	0.98625	0.989519	0.993082	
807.0	0.97773	0.978111	0.979233	0.981031	0.983414	0.986285	0.989544	0.993098	
808.0	0.977792	0.978172	0.97929	0.981082	0.983458	0.986319	0.98957	0.993113	
809.0	0.977853	0.978232	0.979347	0.981133	0.983501	0.986354	0.989595	0.993128	
810.0	0.977914	0.978292	0.979403	0.981183	0.983544	0.986389	0.98962	0.993143	
811.0	0.977975	0.978352	0.979458	0.981233	0.983587	0.986423	0.989645	0.993158	
812.0	0.978035	0.978411	0.979514	0.981283	0.983629	0.986457	0.98967	0.993173	
813.0	0.978095	0.978469	0.979569	0.981332	0.983671	0.986491	0.989694	0.993188	
814.0	0.978155	0.978527	0.979623	0.981381	0.983713	0.986524	0.989719	0.993203	
815.0	0.978214	0.978585	0.979678	0.98143	0.983755	0.986558	0.989743	0.993218	
816.0	0.978272	0.978643	0.979732	0.981478	0.983796	0.986591	0.989767	0.993232	
817.0	0.978331	0.9787	0.979785	0.981526	0.983838	0.986624	0.989791	0.993247	
818.0	0.978389	0.978757	0.979838	0.981574	0.983878	0.986657	0.989815	0.993262	
819.0	0.978446	0.978813	0.979891	0.981622	0.983919	0.986689	0.989839	0.993276	
820.0	0.978503	0.978869	0.979944	0.981669	0.983959	0.986722	0.989863	0.99329	
821.0	0.97856	0.978924	0.979996	0.981716	0.983999	0.986754	0.989886	0.993305	
822.0	0.978616	0.97898	0.980048	0.981762	0.984039	0.986786	0.98991	0.993319	
823.0	0.978672	0.979035	0.980099	0.981809	0.984079	0.986818	0.989933	0.993333	
824.0	0.978728	0.979089	0.980151	0.981855	0.984118	0.986849	0.989956	0.993347	
825.0	0.978783	0.979143	0.980202	0.9819	0.984158	0.986881	0.989979	0.993361	
826.0	0.978838	0.979197	0.980252	0.981946	0.984196	0.986912	0.990002	0.993375	
827.0	0.978878	0.979236	0.980288	0.981978	0.984224	0.986934	0.990018	0.993384	
828.0	0.978895	0.979253	0.980304	0.981991	0.984234	0.986942	0.990022	0.993386	
829.0	0.978913	0.97927	0.980319	0.982005	0.984245	0.986949	0.990027	0.993387	
830.0	0.97893	0.979286	0.980334	0.982018	0.984255	0.986957	0.990031	0.993389	
831.0	0.978947	0.979303	0.98035	0.982031	0.984266	0.986964	0.990036	0.99339	
832.0	0.978964	0.97932	0.980365	0.982044	0.984276	0.986972	0.99004	0.993392	
833.0	0.978982	0.979336	0.98038	0.982057	0.984287	0.98698	0.990045	0.993393	
834.0	0.978999	0.979353	0.980395	0.98207	0.984298	0.986987	0.99005	0.993395	
835.0	0.979016	0.97937	0.980411	0.982083	0.984308	0.986995	0.990054	0.993397	
836.0	0.979033	0.979386	0.980426	0.982096	0.984318	0.987003	0.990059	0.993398	
837.0	0.97905	0.979403	0.980441	0.982109	0.984329	0.987011	0.990064	0.9934	
838.0	0.979067	0.979419	0.980456	0.982123	0.98434	0.987018	0.990069	0.993402	
839.0	0.979084	0.979436	0.980471	0.982136	0.98435	0.987026	0.990073	0.993404	
840.0	0.979101	0.979452	0.980486	0.982149	0.984361	0.987034	0.990078	0.993405	
841.0	0.979118	0.979469	0.980501	0.982162	0.984371	0.987041	0.990083	0.993407	
842.0	0.979135	0.979485	0.980516	0.982175	0.984382	0.987049	0.990088	0.993409	
843.0	0.979151	0.979501	0.980531	0.982188	0.984392	0.987057	0.990093	0.993411	
844.0	0.979168	0.979518	0.980546	0.982201	0.984403	0.987065	0.990098	0.993413	
845.0	0.979185	0.979534	0.980561	0.982214	0.984413	0.987073	0.990103	0.993415	
846.0	0.979202	0.97955	0.980576	0.982226	0.984424	0.98708	0.990107	0.993417	
847.0	0.979218	0.979566	0.980591	0.982239	0.984434	0.987088	0.990112	0.993419	
848.0	0.979235	0.979583	0.980606	0.982252	0.984445	0.987096	0.990117	0.993421	
849.0	0.979252	0.979599	0.980621	0.982265	0.984455	0.987104	0.990122	0.993423	
850.0	0.979268	0.979615	0.980636	0.982278	0.984466	0.987112	0.990127	0.993425	
851.0	0.979285	0.979631	0.980651	0.982291	0.984476	0.987119	0.990132	0.993427	
852.0	0.979301	0.979647	0.980665	0.982304	0.984487	0.987127	0.990137	0.993429	
853.0	0.979318	0.979663	0.98068	0.982317	0.984497	0.987135	0.990142	0.993432	
854.0	0.979334	0.979679	0.980695	0.982329	0.984508	0.987143	0.990148	0.993434	
855.0	0.97935	0.979695	0.98071	0.982342	0.984518	0.987151	0.990153	0.993436	
856.0	0.979367	0.979711	0.980724	0.982355	0.984528	0.987159	0.990158	0.993438	
857.0	0.979383	0.979727	0.980739	0.982368	0.984539	0.987167	0.990163	0.993441	
858.0	0.979399	0.979743	0.980753	0.982381	0.984549	0.987174	0.990168	0.993443	
859.0	0.979416	0.979758	0.980768	0.982393	0.98456	0.987182	0.990173	0.993445	
860.0	0.979432	0.979774	0.980783	0.982406	0.98457	0.98719	0.990178	0.993447	
861.0	0.979448	0.97979	0.980797	0.982419	0.984581	0.987198	0.990183	0.99345	
862.0	0.979464	0.979806	0.980812	0.982431	0.984591	0.987206	0.990188	0.993452	
863.0	0.97948	0.979821	0.980826	0.982444	0.984602	0.987214	0.990194	0.993455	
864.0	0.979496	0.979837	0.980841	0.982457	0.984612	0.987222	0.990199	0.993457	
865.0	0.979513	0.979853	0.980855	0.982469	0.984622	0.98723	0.990204	0.993459	
866.0	0.979528	0.979868	0.98087	0.982482	0.984633	0.987237	0.990209	0.993462	
867.0	0.979544	0.979884	0.980884	0.982495	0.984643	0.987245	0.990214	0.993464	
868.0	0.97956	0.979899	0.980898	0.982507	0.984654	0.987253	0.99022	0.993467	
869.0	0.979576	0.979915	0.980913	0.98252	0.984664	0.987261	0.990225	0.993469	
870.0	0.979592	0.97993	0.980927	0.982532	0.984674	0.987269	0.99023	0.993472	
871.0	0.979608	0.979946	0.980941	0.982545	0.984684	0.987277	0.990235	0.993474	
872.0	0.979624	0.979961	0.980955	0.982557	0.984695	0.987285	0.990241	0.993477	
873.0	0.97964	0.979977	0.98097	0.98257	0.984705	0.987293	0.990246	0.993479	
874.0	0.979655	0.979992	0.980984	0.982582	0.984716	0.987301	0.990251	0.993482	
875.0	0.979671	0.980007	0.980998	0.982595	0.984726	0.987308	0.990256	0.993485	
876.0	0.979687	0.980022	0.981012	0.982607	0.984736	0.987316	0.990262	0.993487	
877.0	0.979702	0.980038	0.981026	0.98262	0.984746	0.987324	0.990267	0.99349	
878.0	0.979718	0.980053	0.98104	0.982632	0.984757	0.987332	0.990272	0.993492	
879.0	0.979734	0.980068	0.981055	0.982644	0.984767	0.98734	0.990277	0.993495	
880.0	0.979749	0.980083	0.981069	0.982657	0.984777	0.987348	0.990283	0.993498	
881.0	0.979765	0.980098	0.981083	0.982669	0.984787	0.987356	0.990288	0.9935	
882.0	0.97978	0.980113	0.981097	0.982681	0.984798	0.987363	0.990294	0.993503	
883.0	0.979795	0.980128	0.981111	0.982694	0.984808	0.987371	0.990299	0.993506	
884.0	0.979811	0.980144	0.981125	0.982706	0.984818	0.987379	0.990304	0.993508	
885.0	0.979826	0.980159	0.981138	0.982718	0.984828	0.987387	0.99031	0.993511	
886.0	0.979829	0.980161	0.981141	0.98272	0.984829	0.987387	0.990309	0.99351	
887.0	0.979813	0.980145	0.981125	0.982705	0.984815	0.987375	0.990299	0.993502	
888.0	0.979797	0.98013	0.98111	0.98269	0.984802	0.987363	0.990289	0.993494	
889.0	0.979782	0.980114	0.981095	0.982676	0.984789	0.987351	0.990279	0.993487	
890.0	0.979766	0.980099	0.98108	0.982662	0.984776	0.98734	0.990269	0.993479	
891.0	0.979751	0.980084	0.981065	0.982648	0.984763	0.987329	0.99026	0.993472	
892.0	0.979736	0.980069	0.981051	0.982634	0.98475	0.987317	0.99025	0.993465	
893.0	0.979721	0.980054	0.981037	0.982621	0.984738	0.987306	0.990241	0.993457	
894.0	0.979707	0.98004	0.981022	0.982607	0.984725	0.987295	0.990232	0.99345	
895.0	0.979692	0.980025	0.981008	0.982594	0.984713	0.987284	0.990223	0.993443	
896.0	0.979678	0.980011	0.980995	0.982581	0.984701	0.987274	0.990214	0.993436	
897.0	0.979664	0.979997	0.980981	0.982568	0.984689	0.987263	0.990205	0.993429	
898.0	0.97965	0.979984	0.980968	0.982555	0.984677	0.987253	0.990196	0.993423	
899.0	0.979636	0.97997	0.980954	0.982542	0.984665	0.987242	0.990188	0.993416	
900.0	0.979623	0.979957	0.980941	0.98253	0.984654	0.987232	0.990179	0.993409	
901.0	0.979609	0.979943	0.980928	0.982518	0.984642	0.987222	0.990171	0.993402	
902.0	0.979596	0.97993	0.980915	0.982505	0.984631	0.987212	0.990162	0.993396	
903.0	0.979583	0.979917	0.980903	0.982493	0.98462	0.987202	0.990154	0.99339	
904.0	0.97957	0.979904	0.980891	0.982482	0.984609	0.987192	0.990146	0.993383	
905.0	0.979558	0.979892	0.980878	0.98247	0.984598	0.987183	0.990138	0.993377	
906.0	0.979545	0.97988	0.980866	0.982458	0.984588	0.987173	0.99013	0.993371	
907.0	0.979533	0.979867	0.980854	0.982447	0.984577	0.987164	0.990122	0.993365	
908.0	0.979521	0.979855	0.980842	0.982436	0.984567	0.987155	0.990114	0.993358	
909.0	0.979509	0.979843	0.980831	0.982425	0.984556	0.987145	0.990106	0.993353	
910.0	0.979497	0.979832	0.980819	0.982414	0.984546	0.987136	0.990099	0.993347	
911.0	0.979485	0.97982	0.980808	0.982403	0.984536	0.987128	0.990091	0.993341	
912.0	0.979474	0.979809	0.980797	0.982392	0.984526	0.987119	0.990084	0.993335	
913.0	0.979462	0.979797	0.980786	0.982381	0.984517	0.98711	0.990076	0.993329	
914.0	0.979451	0.979786	0.980775	0.982371	0.984507	0.987101	0.990069	0.993323	
915.0	0.97944	0.979775	0.980764	0.982361	0.984497	0.987093	0.990062	0.993318	
916.0	0.979429	0.979764	0.980753	0.98235	0.984488	0.987085	0.990055	0.993312	
917.0	0.979418	0.979753	0.980743	0.982341	0.984478	0.987076	0.990048	0.993307	
918.0	0.979407	0.979743	0.980732	0.982331	0.984469	0.987068	0.990041	0.993301	
919.0	0.979397	0.979732	0.980722	0.982321	0.98446	0.98706	0.990034	0.993296	
920.0	0.979387	0.979722	0.980712	0.982311	0.984451	0.987052	0.990027	0.993291	
921.0	0.979377	0.979712	0.980702	0.982302	0.984442	0.987044	0.990021	0.993286	
922.0	0.979366	0.979702	0.980693	0.982292	0.984434	0.987036	0.990014	0.99328	
923.0	0.979357	0.979692	0.980683	0.982283	0.984425	0.987029	0.990008	0.993275	
924.0	0.979347	0.979682	0.980673	0.982274	0.984417	0.987021	0.990001	0.99327	
925.0	0.979337	0.979673	0.980664	0.982265	0.984408	0.987014	0.989995	0.993265	
926.0	0.979328	0.979663	0.980655	0.982256	0.9844	0.987006	0.989989	0.99326	
927.0	0.979318	0.979654	0.980645	0.982247	0.984392	0.986999	0.989982	0.993255	
928.0	0.979309	0.979645	0.980636	0.982239	0.984384	0.986992	0.989976	0.993251	
929.0	0.9793	0.979636	0.980628	0.98223	0.984376	0.986985	0.98997	0.993246	
930.0	0.979291	0.979627	0.980619	0.982222	0.984368	0.986977	0.989964	0.993241	
931.0	0.979282	0.979618	0.98061	0.982213	0.98436	0.986971	0.989958	0.993237	
932.0	0.979273	0.979609	0.980602	0.982205	0.984353	0.986964	0.989953	0.993232	
933.0	0.979264	0.979601	0.980593	0.982197	0.984345	0.986957	0.989947	0.993227	
934.0	0.979256	0.979592	0.980585	0.982189	0.984338	0.98695	0.989941	0.993223	
935.0	0.979248	0.979584	0.980577	0.982181	0.98433	0.986944	0.989936	0.993219	
936.0	0.979239	0.979576	0.980569	0.982174	0.984323	0.986937	0.98993	0.993214	
937.0	0.979231	0.979568	0.980561	0.982166	0.984316	0.986931	0.989925	0.99321	
938.0	0.979223	0.97956	0.980553	0.982158	0.984309	0.986924	0.989919	0.993205	
939.0	0.979215	0.979552	0.980545	0.982151	0.984302	0.986918	0.989914	0.993201	
940.0	0.979208	0.979544	0.980538	0.982144	0.984295	0.986912	0.989909	0.993197	
941.0	0.9792	0.979537	0.98053	0.982136	0.984288	0.986906	0.989903	0.993193	
942.0	0.979192	0.979529	0.980523	0.982129	0.984282	0.9869	0.989898	0.993189	
943.0	0.979185	0.979522	0.980515	0.982122	0.984275	0.986894	0.989893	0.993185	
944.0	0.979178	0.979514	0.980508	0.982115	0.984269	0.986888	0.989888	0.993181	
945.0	0.979171	0.979507	0.980501	0.982109	0.984262	0.986882	0.989883	0.993177	
946.0	0.979163	0.9795	0.980494	0.982102	0.984256	0.986877	0.989878	0.993173	
947.0	0.979156	0.979493	0.980487	0.982095	0.98425	0.986871	0.989874	0.993169	
948.0	0.97915	0.979486	0.980481	0.982089	0.984244	0.986866	0.989869	0.993166	
949.0	0.979143	0.979479	0.980474	0.982082	0.984238	0.98686	0.989864	0.993162	
950.0	0.979136	0.979473	0.980467	0.982076	0.984232	0.986855	0.98986	0.993158	
951.0	0.97913	0.979466	0.980461	0.98207	0.984226	0.986849	0.989855	0.993154	
952.0	0.979123	0.97946	0.980455	0.982063	0.98422	0.986844	0.989851	0.993151	
953.0	0.979117	0.979454	0.980448	0.982058	0.984214	0.986839	0.989846	0.993147	
954.0	0.979115	0.979452	0.980447	0.982056	0.984212	0.986837	0.989844	0.993145	
955.0	0.979125	0.979461	0.980455	0.982063	0.984218	0.986842	0.989847	0.993147	
956.0	0.979134	0.979471	0.980464	0.982071	0.984225	0.986847	0.989851	0.993149	
957.0	0.979144	0.97948	0.980473	0.982078	0.984231	0.986852	0.989854	0.99315	
958.0	0.979153	0.979489	0.980481	0.982086	0.984238	0.986857	0.989857	0.993152	
959.0	0.979163	0.979499	0.98049	0.982094	0.984244	0.986861	0.989861	0.993154	
960.0	0.979173	0.979508	0.980499	0.982101	0.98425	0.986866	0.989864	0.993156	
961.0	0.979182	0.979517	0.980507	0.982109	0.984257	0.986871	0.989867	0.993157	
962.0	0.979192	0.979527	0.980516	0.982117	0.984263	0.986876	0.989871	0.993159	
963.0	0.979201	0.979536	0.980525	0.982124	0.984269	0.986881	0.989874	0.993161	
964.0	0.979211	0.979546	0.980534	0.982132	0.984276	0.986886	0.989878	0.993163	
965.0	0.979221	0.979555	0.980542	0.98214	0.984282	0.986891	0.989881	0.993164	
966.0	0.97923	0.979564	0.980551	0.982148	0.984289	0.986896	0.989885	0.993166	
967.0	0.97924	0.979574	0.98056	0.982155	0.984295	0.986901	0.989888	0.993168	
968.0	0.97925	0.979583	0.980568	0.982163	0.984302	0.986906	0.989892	0.99317	
969.0	0.979259	0.979593	0.980577	0.982171	0.984308	0.986911	0.989895	0.993172	
970.0	0.979269	0.979602	0.980586	0.982179	0.984315	0.986916	0.989899	0.993174	
971.0	0.979279	0.979611	0.980595	0.982186	0.984321	0.986921	0.989902	0.993176	
972.0	0.979288	0.979621	0.980604	0.982194	0.984328	0.986926	0.989906	0.993178	
973.0	0.979298	0.97963	0.980612	0.982202	0.984334	0.986931	0.989909	0.99318	
974.0	0.979307	0.97964	0.980621	0.98221	0.984341	0.986937	0.989913	0.993182	
975.0	0.979317	0.979649	0.98063	0.982217	0.984347	0.986942	0.989916	0.993183	
976.0	0.979327	0.979658	0.980639	0.982225	0.984354	0.986947	0.98992	0.993185	
977.0	0.979336	0.979668	0.980648	0.982233	0.98436	0.986952	0.989923	0.993187	
978.0	0.979346	0.979677	0.980656	0.982241	0.984367	0.986957	0.989927	0.993189	
979.0	0.979356	0.979687	0.980665	0.982248	0.984373	0.986962	0.98993	0.993191	
980.0	0.979365	0.979696	0.980674	0.982256	0.98438	0.986967	0.989934	0.993193	
981.0	0.979375	0.979706	0.980683	0.982264	0.984387	0.986972	0.989938	0.993195	
982.0	0.979385	0.979715	0.980692	0.982272	0.984393	0.986978	0.989941	0.993197	
983.0	0.979394	0.979725	0.9807	0.98228	0.9844	0.986983	0.989945	0.993199	
984.0	0.979404	0.979734	0.980709	0.982288	0.984406	0.986988	0.989949	0.993201	
985.0	0.979414	0.979743	0.980718	0.982295	0.984413	0.986993	0.989952	0.993203	
986.0	0.979423	0.979753	0.980727	0.982303	0.984419	0.986998	0.989956	0.993205	
987.0	0.979433	0.979762	0.980736	0.982311	0.984426	0.987003	0.98996	0.993208	
988.0	0.979443	0.979772	0.980744	0.982319	0.984433	0.987009	0.989963	0.99321	
989.0	0.979452	0.979781	0.980753	0.982327	0.984439	0.987014	0.989967	0.993212	
990.0	0.979462	0.979791	0.980762	0.982335	0.984446	0.987019	0.989971	0.993214	
991.0	0.979472	0.9798	0.980771	0.982343	0.984452	0.987024	0.989974	0.993216	
992.0	0.979481	0.97981	0.98078	0.98235	0.984459	0.987029	0.989978	0.993218	
993.0	0.979491	0.979819	0.980788	0.982358	0.984466	0.987035	0.989982	0.99322	
994.0	0.979501	0.979828	0.980797	0.982366	0.984472	0.98704	0.989985	0.993222	
995.0	0.97951	0.979838	0.980806	0.982374	0.984479	0.987045	0.989989	0.993224	
996.0	0.97952	0.979847	0.980815	0.982382	0.984486	0.98705	0.989993	0.993227	
997.0	0.97953	0.979857	0.980824	0.98239	0.984492	0.987056	0.989997	0.993229	
998.0	0.979539	0.979866	0.980833	0.982397	0.984499	0.987061	0.99	0.993231	
999.0	0.979549	0.979876	0.980842	0.982405	0.984506	0.987066	0.990004	0.993233	
1000.0	0.979559	0.979885	0.98085	0.982413	0.984512	0.987072	0.990008	0.993235	
