wavelength	0.0	10.0	20.0	30.0	40.0	50.0	60.0	70.0
251.0	0.292738	0.298104	0.3146	0.343688	0.388251	0.452366	0.540653	0.657907	
252.0	0.291946	0.29727	0.313669	0.342667	0.3872	0.451359	0.539758	0.657193	
253.0	0.291118	0.296407	0.312724	0.341653	0.386172	0.450385	0.538899	0.656513	
254.0	0.290269	0.295527	0.311776	0.340649	0.385167	0.44944	0.53807	0.655862	
255.0	0.28942	0.294651	0.310841	0.33967	0.384195	0.448532	0.537281	0.655249	
256.0	0.28858	0.293787	0.309925	0.33872	0.383259	0.447666	0.536535	0.654676	
257.0	0.287755	0.29294	0.309034	0.337802	0.382362	0.446841	0.535832	0.654145	
258.0	0.286947	0.292113	0.308168	0.336917	0.381503	0.446058	0.535172	0.653655	
259.0	0.286098	0.291248	0.30727	0.336005	0.380618	0.445247	0.534481	0.653139	
260.0	0.285241	0.290376	0.306371	0.335097	0.37974	0.44444	0.533794	0.652628	
261.0	0.284391	0.289515	0.305488	0.33421	0.378886	0.44366	0.533135	0.652144	
262.0	0.283545	0.288659	0.304616	0.333342	0.378054	0.442904	0.5325	0.651682	
263.0	0.282701	0.287807	0.303753	0.332488	0.377241	0.442168	0.531888	0.651241	
264.0	0.281686	0.286785	0.30272	0.33146	0.37625	0.441256	0.531111	0.650665	
265.0	0.27999	0.285075	0.30098	0.329696	0.374496	0.439575	0.529609	0.649484	
266.0	0.278305	0.283378	0.299256	0.327953	0.372765	0.43792	0.528134	0.648328	
267.0	0.276634	0.281696	0.297551	0.326231	0.371058	0.43629	0.526686	0.647198	
268.0	0.27498	0.280033	0.295866	0.324532	0.369375	0.434687	0.525266	0.646094	
269.0	0.273344	0.278388	0.294202	0.322856	0.367718	0.433112	0.523875	0.645015	
270.0	0.271722	0.276757	0.292553	0.321196	0.366075	0.431549	0.522496	0.643946	
271.0	0.270116	0.275143	0.290922	0.319554	0.364449	0.430002	0.521131	0.642889	
272.0	0.268533	0.273554	0.289317	0.317938	0.362852	0.428485	0.519798	0.641859	
273.0	0.266975	0.271989	0.287737	0.31635	0.361283	0.426999	0.518497	0.640859	
274.0	0.265441	0.270449	0.286184	0.314788	0.359743	0.425545	0.517229	0.639887	
275.0	0.263932	0.268934	0.284656	0.313255	0.358233	0.424123	0.515995	0.638944	
276.0	0.261906	0.266896	0.282587	0.311155	0.356137	0.422118	0.514219	0.637554	
277.0	0.259362	0.264332	0.279972	0.308485	0.353453	0.419527	0.511898	0.635711	
278.0	0.256841	0.261792	0.277383	0.30584	0.350793	0.416962	0.509603	0.633891	
279.0	0.254346	0.259277	0.274818	0.303221	0.348161	0.414426	0.507337	0.632092	
280.0	0.251877	0.256789	0.27228	0.300628	0.345556	0.411919	0.505099	0.630316	
281.0	0.249434	0.254327	0.269769	0.298063	0.342979	0.40944	0.502889	0.628561	
282.0	0.246889	0.251761	0.26715	0.295386	0.34029	0.406855	0.500585	0.62673	
283.0	0.243843	0.248689	0.264009	0.292169	0.337055	0.403744	0.497807	0.624515	
284.0	0.240812	0.245631	0.260882	0.288966	0.333834	0.400646	0.495043	0.622308	
285.0	0.237797	0.242589	0.257769	0.285778	0.330627	0.397564	0.492291	0.620108	
286.0	0.234799	0.239563	0.254672	0.282603	0.327434	0.394495	0.489554	0.617916	
287.0	0.231817	0.236553	0.251591	0.279443	0.324255	0.391442	0.486829	0.61573	
288.0	0.228851	0.233559	0.248525	0.276298	0.321091	0.388402	0.484117	0.61355	
289.0	0.225086	0.229754	0.244618	0.272275	0.317026	0.384476	0.480588	0.610695	
290.0	0.220969	0.225593	0.240339	0.267862	0.312558	0.380151	0.476689	0.60753	
291.0	0.216847	0.221425	0.236051	0.263437	0.308074	0.375809	0.472772	0.604343	
292.0	0.212721	0.217252	0.231757	0.259001	0.303578	0.371455	0.468843	0.601139	
293.0	0.208593	0.213077	0.227456	0.254557	0.299073	0.367093	0.464904	0.597919	
294.0	0.204465	0.208901	0.223153	0.250108	0.294561	0.362726	0.46096	0.594687	
295.0	0.200339	0.204726	0.21885	0.245657	0.290049	0.35836	0.457015	0.591444	
296.0	0.194707	0.19902	0.212948	0.239519	0.283777	0.35223	0.451415	0.586809	
297.0	0.18868	0.192911	0.206619	0.232921	0.277018	0.345602	0.445336	0.581755	
298.0	0.182641	0.186786	0.200268	0.22629	0.270214	0.33892	0.439193	0.576625	
299.0	0.176303	0.18036	0.193607	0.219347	0.263107	0.331961	0.432804	0.571282	
300.0	0.16871	0.172673	0.185676	0.211147	0.254812	0.323944	0.425524	0.56523	
301.0	0.161014	0.164878	0.177627	0.202814	0.246368	0.315762	0.418061	0.558981	
302.0	0.15323	0.156992	0.169476	0.194363	0.237786	0.307419	0.410405	0.552519	
303.0	0.145202	0.148879	0.161157	0.185857	0.229312	0.299351	0.403117	0.546392	
304.0	0.13692	0.140526	0.152641	0.177237	0.220841	0.291394	0.395982	0.54038	
305.0	0.128506	0.132038	0.143986	0.168469	0.212201	0.28323	0.388577	0.534055	
306.0	0.119981	0.123437	0.135207	0.159556	0.203382	0.274824	0.380846	0.527354	
307.0	0.111679	0.115112	0.126872	0.151372	0.195647	0.267803	0.374593	0.521944	
308.0	0.103347	0.106766	0.118544	0.143237	0.187996	0.260855	0.368336	0.516444	
309.0	0.094975	0.098383	0.110185	0.135073	0.180296	0.253791	0.361857	0.510646	
310.0	0.086592	0.089989	0.101816	0.126895	0.172552	0.246609	0.355148	0.504541	
311.0	0.076156	0.079619	0.09173	0.117481	0.16423	0.239473	0.348828	0.498833	
312.0	0.068816	0.072444	0.085117	0.111941	0.160172	0.236803	0.346829	0.496859	
313.0	0.064858	0.068763	0.082315	0.11065	0.160766	0.238956	0.349454	0.498859	
314.0	0.061965	0.066246	0.080962	0.111225	0.163636	0.243589	0.354427	0.50277	
315.0	0.062848	0.0679	0.084933	0.118843	0.175324	0.258124	0.369116	0.514862	
316.0	0.067573	0.073486	0.093032	0.130666	0.190913	0.275781	0.385907	0.528164	
317.0	0.075223	0.081977	0.103896	0.144822	0.208001	0.293852	0.402197	0.540591	
318.0	0.086895	0.094615	0.119181	0.163553	0.229388	0.31544	0.420977	0.554615	
319.0	0.111837	0.120946	0.149152	0.19779	0.266124	0.35092	0.4513	0.577512	
320.0	0.137654	0.147749	0.178358	0.229288	0.297929	0.379945	0.475018	0.595061	
321.0	0.160321	0.170969	0.202775	0.254383	0.321979	0.400816	0.491455	0.607182	
322.0	0.185445	0.196462	0.228924	0.280411	0.346158	0.421328	0.507586	0.61941	
323.0	0.219135	0.230351	0.262934	0.31342	0.376257	0.446809	0.528113	0.635616	
324.0	0.25215	0.263242	0.295139	0.343749	0.403179	0.469309	0.54655	0.65077	
325.0	0.278211	0.288983	0.319784	0.366278	0.422591	0.485286	0.559935	0.662307	
326.0	0.305135	0.315453	0.344846	0.388931	0.442052	0.501586	0.574133	0.674867	
327.0	0.336933	0.346648	0.374265	0.415531	0.465199	0.521601	0.592184	0.690896	
328.0	0.371025	0.380059	0.405722	0.44402	0.490284	0.543871	0.612743	0.709073	
329.0	0.405253	0.413615	0.437361	0.472813	0.515981	0.567211	0.634585	0.728157	
330.0	0.439276	0.447025	0.46901	0.501869	0.542331	0.591602	0.657495	0.747804	
331.0	0.474088	0.481314	0.501773	0.532384	0.570567	0.618185	0.682377	0.768652	
332.0	0.509503	0.51631	0.535533	0.564327	0.6007	0.646875	0.708977	0.790393	
333.0	0.534183	0.540737	0.559239	0.58705	0.622564	0.668045	0.728617	0.806225	
334.0	0.551801	0.558205	0.576305	0.603641	0.638846	0.684044	0.743457	0.818064	
335.0	0.568522	0.574808	0.592598	0.61959	0.65457	0.699422	0.757532	0.829135	
336.0	0.584562	0.590749	0.608291	0.635017	0.669795	0.71421	0.770896	0.839523	
337.0	0.599768	0.60587	0.623204	0.649711	0.684285	0.728185	0.783387	0.84914	
338.0	0.614151	0.620176	0.637325	0.663628	0.697974	0.741288	0.794986	0.858003	
339.0	0.627746	0.633698	0.650667	0.676764	0.710841	0.753511	0.805714	0.866152	
340.0	0.640218	0.646101	0.6629	0.68879	0.722578	0.764589	0.815372	0.873456	
341.0	0.651158	0.656977	0.673622	0.699321	0.732829	0.774221	0.823727	0.879761	
342.0	0.661497	0.667249	0.683722	0.709195	0.742373	0.783115	0.831394	0.885529	
343.0	0.671273	0.676951	0.693233	0.718443	0.751244	0.791313	0.838415	0.890799	
344.0	0.680518	0.686117	0.702187	0.727096	0.759478	0.798858	0.844837	0.895608	
345.0	0.688837	0.694355	0.71021	0.73481	0.766765	0.805486	0.850448	0.899804	
346.0	0.696458	0.701894	0.717527	0.741803	0.77332	0.811401	0.855426	0.903522	
347.0	0.703705	0.709054	0.724447	0.748372	0.779423	0.816857	0.859988	0.906919	
348.0	0.710598	0.715855	0.730994	0.754543	0.785103	0.821887	0.86416	0.910017	
349.0	0.717162	0.722323	0.737193	0.760344	0.790393	0.826523	0.867975	0.912839	
350.0	0.723419	0.72848	0.743071	0.765806	0.795326	0.830802	0.871465	0.915409	
351.0	0.729391	0.734348	0.748651	0.770956	0.799934	0.834757	0.87466	0.917751	
352.0	0.735098	0.73995	0.753957	0.775822	0.804247	0.838421	0.877591	0.919887	
353.0	0.740559	0.745304	0.759011	0.780428	0.808296	0.841823	0.880285	0.921837	
354.0	0.745792	0.750429	0.763835	0.784799	0.812106	0.844992	0.882769	0.923622	
355.0	0.750607	0.755143	0.768259	0.78879	0.815561	0.847842	0.884981	0.925202	
356.0	0.7552	0.759634	0.772466	0.792568	0.81881	0.850497	0.887023	0.92665	
357.0	0.759635	0.763969	0.776517	0.796192	0.821907	0.853008	0.888935	0.927995	
358.0	0.763924	0.768159	0.780425	0.799677	0.82487	0.855392	0.890734	0.92925	
359.0	0.768075	0.772213	0.784202	0.803034	0.827711	0.857663	0.892434	0.930427	
360.0	0.772098	0.776139	0.787854	0.806273	0.83044	0.859831	0.894043	0.931533	
361.0	0.775998	0.779944	0.79139	0.809401	0.833067	0.861905	0.895568	0.932571	
362.0	0.779782	0.783635	0.794816	0.812427	0.835597	0.86389	0.897016	0.933546	
363.0	0.783457	0.787219	0.79814	0.815356	0.838037	0.865793	0.89839	0.934463	
364.0	0.787029	0.790702	0.801366	0.818194	0.840394	0.86762	0.899697	0.935324	
365.0	0.789308	0.792915	0.803393	0.819938	0.841793	0.868645	0.900373	0.935738	
366.0	0.788786	0.792378	0.802819	0.819316	0.841126	0.867955	0.899715	0.935218	
367.0	0.788294	0.791872	0.802275	0.818722	0.840483	0.867285	0.899072	0.934705	
368.0	0.787834	0.791397	0.801761	0.818156	0.839866	0.866635	0.898442	0.934198	
369.0	0.787406	0.790954	0.801278	0.817618	0.839274	0.866005	0.897825	0.933695	
370.0	0.787014	0.790547	0.800829	0.817113	0.83871	0.865398	0.897223	0.933199	
371.0	0.786661	0.790178	0.800418	0.816645	0.83818	0.86482	0.896643	0.932714	
372.0	0.78635	0.789852	0.800049	0.816217	0.837689	0.864276	0.89609	0.932247	
373.0	0.786083	0.78957	0.799725	0.815833	0.83724	0.863772	0.89557	0.931802	
374.0	0.785863	0.789334	0.799448	0.815497	0.836838	0.863311	0.895087	0.931383	
375.0	0.785691	0.789147	0.799221	0.815211	0.836486	0.862898	0.894646	0.930996	
376.0	0.786335	0.789764	0.799756	0.815626	0.836751	0.863002	0.894609	0.930889	
377.0	0.788776	0.792145	0.801967	0.817571	0.838356	0.86422	0.895435	0.931381	
378.0	0.791206	0.794518	0.804173	0.819518	0.839972	0.865455	0.896281	0.931889	
379.0	0.793627	0.796883	0.806377	0.82147	0.8416	0.866709	0.897149	0.932417	
380.0	0.796039	0.799241	0.808579	0.823428	0.843243	0.867984	0.898041	0.932968	
381.0	0.79844	0.80159	0.810777	0.825388	0.844895	0.869277	0.898955	0.933541	
382.0	0.800826	0.803925	0.812965	0.827347	0.846554	0.870583	0.899889	0.934134	
383.0	0.803193	0.806243	0.815141	0.829298	0.848213	0.871898	0.900836	0.934742	
384.0	0.805538	0.80854	0.8173	0.831239	0.849869	0.873216	0.901793	0.935364	
385.0	0.807858	0.810814	0.819439	0.833166	0.851518	0.874534	0.902756	0.935995	
386.0	0.81015	0.813061	0.821555	0.835076	0.853157	0.87585	0.903722	0.936633	
387.0	0.812413	0.81528	0.823646	0.836966	0.854782	0.877158	0.904688	0.937275	
388.0	0.814992	0.81781	0.826035	0.839132	0.856653	0.878676	0.905823	0.938042	
389.0	0.817874	0.820639	0.828709	0.841559	0.858756	0.880394	0.907117	0.938925	
390.0	0.820706	0.823419	0.831336	0.843946	0.860827	0.882085	0.908394	0.939798	
391.0	0.823488	0.826149	0.833918	0.846292	0.862863	0.88375	0.909652	0.940659	
392.0	0.826221	0.828832	0.836455	0.848599	0.864866	0.885388	0.910891	0.941508	
393.0	0.828911	0.831474	0.838954	0.850873	0.866843	0.887008	0.912116	0.942348	
394.0	0.83157	0.834084	0.841426	0.853126	0.868807	0.88862	0.913339	0.943188	
395.0	0.834206	0.836674	0.843881	0.855367	0.870766	0.890237	0.91457	0.944036	
396.0	0.836828	0.839251	0.846328	0.857608	0.872733	0.891868	0.91582	0.944902	
397.0	0.839443	0.841823	0.848775	0.859856	0.874716	0.893523	0.917099	0.945793	
398.0	0.842059	0.844398	0.85123	0.862121	0.876725	0.895213	0.918416	0.94672	
399.0	0.844683	0.846983	0.8537	0.864409	0.878768	0.896947	0.919783	0.947693	
400.0	0.847322	0.849585	0.856193	0.866729	0.880855	0.898735	0.92121	0.94872	
401.0	0.849431	0.851667	0.8582	0.868614	0.882572	0.900225	0.922408	0.949588	
402.0	0.851572	0.853784	0.860248	0.870552	0.884354	0.901793	0.923691	0.950533	
403.0	0.853751	0.855941	0.862343	0.872549	0.886211	0.903449	0.92507	0.951569	
404.0	0.855972	0.858145	0.864493	0.874613	0.888151	0.905207	0.92656	0.952709	
405.0	0.858242	0.860398	0.866702	0.876752	0.890187	0.907079	0.928177	0.95397	
406.0	0.86055	0.862695	0.868964	0.87896	0.892313	0.909065	0.929923	0.955358	
407.0	0.862884	0.86502	0.871266	0.881227	0.894522	0.911158	0.931796	0.956876	
408.0	0.865233	0.867364	0.873598	0.883544	0.896808	0.91336	0.933801	0.958532	
409.0	0.867584	0.869715	0.875952	0.885906	0.899171	0.915673	0.935946	0.960339	
410.0	0.86993	0.872066	0.878322	0.888312	0.901617	0.918111	0.938251	0.962319	
411.0	0.872261	0.874409	0.880704	0.890765	0.904156	0.920693	0.94074	0.964499	
412.0	0.874568	0.876736	0.883098	0.893274	0.906808	0.923447	0.943448	0.966914	
413.0	0.876842	0.879042	0.885504	0.89585	0.909598	0.926408	0.946408	0.969595	
414.0	0.87941	0.881652	0.888244	0.898808	0.912822	0.929841	0.949846	0.972716	
415.0	0.88206	0.884363	0.891138	0.901997	0.916353	0.933629	0.953642	0.976171	
416.0	0.884636	0.887025	0.894055	0.905299	0.92007	0.937626	0.957623	0.979781	
417.0	0.887123	0.889628	0.896982	0.908682	0.923887	0.941673	0.961573	0.983318	
418.0	0.889506	0.892149	0.899871	0.912033	0.9276	0.945488	0.965164	0.986459	
419.0	0.89177	0.894551	0.902618	0.915149	0.930916	0.948733	0.968057	0.988873	
420.0	0.893911	0.896802	0.905115	0.917846	0.933623	0.951219	0.970088	0.990389	
421.0	0.895934	0.898882	0.907297	0.92004	0.935669	0.952935	0.971252	0.990945	
422.0	0.89784	0.900788	0.909163	0.921762	0.937128	0.953983	0.971621	0.990512	
423.0	0.899634	0.902534	0.91076	0.923109	0.938133	0.954493	0.971268	0.98903	
424.0	0.901316	0.90414	0.912151	0.924184	0.938809	0.954572	0.970224	0.986364	
425.0	0.902889	0.905623	0.913387	0.925068	0.93924	0.954281	0.968464	0.982286	
426.0	0.904357	0.906996	0.914502	0.92581	0.939478	0.953642	0.965907	0.976472	
427.0	0.905721	0.908265	0.915512	0.926434	0.939541	0.952639	0.962412	0.96848	
428.0	0.906819	0.909276	0.916278	0.926816	0.939315	0.951145	0.95774	0.957806	
429.0	0.907663	0.910039	0.916808	0.926962	0.938795	0.949107	0.951676	0.943945	
430.0	0.908422	0.910718	0.917256	0.927005	0.93808	0.946551	0.94401	0.926356	
431.0	0.909099	0.911318	0.917621	0.92694	0.937151	0.943399	0.934429	0.904632	
432.0	0.9097	0.911841	0.917906	0.926762	0.935989	0.93956	0.922583	0.878658	
433.0	0.910229	0.912293	0.918112	0.926469	0.934572	0.934935	0.908086	0.848827	
434.0	0.910689	0.912674	0.918237	0.926053	0.932871	0.92939	0.890497	0.816182	
435.0	0.911081	0.912984	0.918277	0.925499	0.930841	0.922749	0.869343	0.782547	
436.0	0.911399	0.913216	0.918221	0.924785	0.928423	0.914792	0.844209	0.750459	
437.0	0.91164	0.913367	0.918062	0.923893	0.925555	0.905276	0.814898	0.722706	
438.0	0.9118	0.913431	0.917788	0.922799	0.922165	0.893912	0.781549	0.70156	
439.0	0.911873	0.9134	0.917389	0.921476	0.918167	0.880381	0.744881	0.688234	
440.0	0.911853	0.913268	0.916852	0.919897	0.913467	0.864331	0.706314	0.682647	
441.0	0.911737	0.91303	0.916167	0.918031	0.907955	0.845405	0.668028	0.683721	
442.0	0.911517	0.912676	0.915317	0.91584	0.901503	0.823252	0.632709	0.689873	
443.0	0.911257	0.912269	0.914354	0.913343	0.893995	0.797462	0.602775	0.699544	
444.0	0.911156	0.911999	0.913446	0.910645	0.885295	0.767255	0.579796	0.711772	
445.0	0.910921	0.911577	0.912313	0.907467	0.875062	0.733008	0.566551	0.72517	
446.0	0.910538	0.910989	0.910929	0.903739	0.863039	0.695144	0.563053	0.738861	
447.0	0.909998	0.910221	0.909268	0.899387	0.848947	0.654661	0.56807	0.752273	
448.0	0.909287	0.909258	0.9073	0.894321	0.832474	0.613259	0.579672	0.765069	
449.0	0.908391	0.90808	0.904989	0.888438	0.813283	0.573317	0.595771	0.77707	
450.0	0.907293	0.906667	0.902294	0.881612	0.791019	0.53761	0.614505	0.788213	
451.0	0.905973	0.904994	0.899166	0.873701	0.765367	0.508932	0.634408	0.79849	
452.0	0.904404	0.903027	0.895543	0.864529	0.736078	0.489456	0.654434	0.807933	
453.0	0.90256	0.900735	0.89136	0.8539	0.703073	0.480224	0.673895	0.816592	
454.0	0.900406	0.898073	0.886532	0.84158	0.666552	0.481032	0.692379	0.824525	
455.0	0.897907	0.894998	0.880974	0.82732	0.627139	0.49054	0.709668	0.831794	
456.0	0.895021	0.891454	0.874573	0.810829	0.586006	0.506798	0.725679	0.838459	
457.0	0.891698	0.887382	0.867209	0.791805	0.544959	0.527671	0.740409	0.844575	
458.0	0.887876	0.882703	0.858728	0.769917	0.506354	0.551234	0.753915	0.850195	
459.0	0.883497	0.87734	0.848974	0.744881	0.47288	0.575908	0.766268	0.855368	
460.0	0.878486	0.871202	0.837773	0.716543	0.447157	0.60041	0.777488	0.860099	
461.0	0.872758	0.864179	0.824907	0.684761	0.430942	0.624092	0.78773	0.864459	
462.0	0.866202	0.85613	0.810112	0.649585	0.425051	0.646552	0.797107	0.868492	
463.0	0.858706	0.846912	0.793131	0.611461	0.429138	0.667535	0.805697	0.872227	
464.0	0.850129	0.836348	0.773665	0.571228	0.441868	0.686959	0.813582	0.875692	
465.0	0.840305	0.824233	0.751415	0.530305	0.461325	0.704823	0.820829	0.87891	
466.0	0.829058	0.810347	0.72611	0.490666	0.48539	0.721189	0.827502	0.881902	
467.0	0.816177	0.794438	0.697529	0.45473	0.512123	0.736149	0.833657	0.884687	
468.0	0.801423	0.776226	0.665562	0.425062	0.539939	0.749814	0.839345	0.887283	
469.0	0.784534	0.755424	0.630307	0.403944	0.567651	0.762294	0.84461	0.889704	
470.0	0.765223	0.731734	0.592158	0.392885	0.594459	0.773702	0.849494	0.891964	
471.0	0.743201	0.704906	0.551958	0.392325	0.619856	0.784139	0.854029	0.894075	
472.0	0.718188	0.674759	0.511068	0.401571	0.643576	0.793701	0.858249	0.896046	
473.0	0.689955	0.641261	0.471417	0.419044	0.665512	0.802475	0.86218	0.897889	
474.0	0.65836	0.604609	0.435386	0.442695	0.685675	0.810542	0.865849	0.899611	
475.0	0.623475	0.565386	0.40558	0.470376	0.70412	0.81797	0.869276	0.90122	
476.0	0.585626	0.524616	0.384339	0.500186	0.72096	0.824823	0.872483	0.902724	
477.0	0.545588	0.48395	0.373386	0.530577	0.736269	0.831123	0.875462	0.904113	
478.0	0.504995	0.446102	0.3739	0.560193	0.749794	0.836636	0.87804	0.90528	
479.0	0.465598	0.413255	0.384309	0.588377	0.762095	0.84174	0.880454	0.906362	
480.0	0.429701	0.387858	0.402969	0.614758	0.7733	0.846474	0.882715	0.907363	
481.0	0.399821	0.371883	0.427765	0.639164	0.783523	0.850872	0.884836	0.908289	
482.0	0.378264	0.366391	0.456519	0.661564	0.792865	0.854964	0.886825	0.909141	
483.0	0.366662	0.371317	0.487295	0.682019	0.80142	0.858779	0.888693	0.909924	
484.0	0.365632	0.385555	0.518556	0.700643	0.809271	0.862342	0.890448	0.910641	
485.0	0.374673	0.407261	0.549184	0.717573	0.816489	0.865673	0.892097	0.911293	
486.0	0.392336	0.43427	0.578436	0.73295	0.823139	0.868792	0.893647	0.911884	
487.0	0.416613	0.464486	0.60589	0.746928	0.829279	0.871717	0.895104	0.912415	
488.0	0.445325	0.496102	0.631332	0.759642	0.834959	0.874463	0.896474	0.912888	
489.0	0.476465	0.527725	0.65471	0.77122	0.840222	0.877045	0.897762	0.913307	
490.0	0.508396	0.558383	0.676074	0.781783	0.845111	0.879475	0.898974	0.913671	
491.0	0.53989	0.587453	0.69553	0.791437	0.849659	0.881764	0.900115	0.913984	
492.0	0.570117	0.614588	0.713213	0.800276	0.853899	0.883924	0.901187	0.914247	
493.0	0.598574	0.639641	0.729271	0.808386	0.857856	0.885964	0.902196	0.914461	
494.0	0.625001	0.6626	0.743857	0.815842	0.861558	0.887892	0.903145	0.914629	
495.0	0.649313	0.683539	0.757112	0.822709	0.865024	0.889717	0.904039	0.914753	
496.0	0.67171	0.702728	0.769274	0.829107	0.868311	0.891468	0.904897	0.914847	
497.0	0.693456	0.721327	0.781153	0.835494	0.871681	0.893315	0.905843	0.915	
498.0	0.71308	0.738096	0.791929	0.841381	0.874837	0.895063	0.906735	0.915113	
499.0	0.730772	0.75322	0.801727	0.84682	0.877799	0.89672	0.90758	0.915189	
500.0	0.74672	0.766877	0.810654	0.851854	0.880583	0.898292	0.908382	0.915236	
501.0	0.761105	0.779225	0.818806	0.856525	0.883203	0.899787	0.909147	0.915263	
502.0	0.774101	0.790413	0.82627	0.860866	0.885674	0.901211	0.909883	0.915279	
503.0	0.785862	0.800572	0.833119	0.864911	0.888008	0.902572	0.910598	0.915299	
504.0	0.796521	0.809812	0.839417	0.868684	0.890215	0.903875	0.911299	0.91534	
505.0	0.806207	0.81824	0.845223	0.872212	0.892306	0.905127	0.911998	0.915426	
506.0	0.815027	0.825943	0.850585	0.875516	0.89429	0.906336	0.912708	0.915588	
507.0	0.823079	0.833001	0.85555	0.878617	0.896177	0.907508	0.913446	0.915867	
508.0	0.830444	0.839483	0.860156	0.881531	0.897976	0.908652	0.914229	0.916316	
509.0	0.837201	0.845451	0.864439	0.884275	0.899693	0.909777	0.915084	0.917005	
510.0	0.84341	0.850955	0.868428	0.886863	0.901337	0.910893	0.91604	0.918029	
511.0	0.849132	0.856045	0.872151	0.889308	0.902916	0.912012	0.917137	0.91951	
512.0	0.854416	0.860762	0.875633	0.891622	0.904437	0.913147	0.918424	0.921607	
513.0	0.859305	0.865142	0.878894	0.893817	0.905907	0.914316	0.919963	0.924527	
514.0	0.863841	0.869218	0.881956	0.895902	0.907336	0.915537	0.921836	0.92853	
515.0	0.868056	0.873018	0.884834	0.897886	0.908731	0.916835	0.924146	0.933935	
516.0	0.871981	0.876567	0.887544	0.899779	0.910101	0.91824	0.927022	0.941114	
517.0	0.875588	0.879838	0.890061	0.901559	0.911434	0.919765	0.93059	0.950362	
518.0	0.878886	0.882837	0.892386	0.903224	0.912731	0.921442	0.935008	0.961899	
519.0	0.881984	0.885661	0.894592	0.904828	0.914041	0.923359	0.94057	0.976027	
520.0	0.884897	0.888325	0.896689	0.906378	0.915378	0.925584	0.947555	0.992617	
521.0	0.887642	0.890841	0.898686	0.907881	0.916759	0.928203	0.956272	1.011083	
522.0	0.890231	0.893221	0.90059	0.909345	0.918205	0.931324	0.967032	1.030323	
523.0	0.892678	0.895476	0.902409	0.910776	0.919739	0.93508	0.98008	1.04882	
524.0	0.894993	0.897614	0.90415	0.912183	0.921392	0.939638	0.995492	1.064992	
525.0	0.897186	0.899647	0.90582	0.913576	0.9232	0.945194	1.013033	1.077609	
526.0	0.899267	0.901579	0.907426	0.914963	0.925211	0.951985	1.032025	1.086104	
527.0	0.901243	0.903421	0.908973	0.916357	0.92748	0.960267	1.051268	1.090585	
528.0	0.903123	0.905178	0.910467	0.91777	0.930077	0.970302	1.069196	1.091656	
529.0	0.904913	0.906856	0.911915	0.919218	0.933091	0.982296	1.0842	1.09013	
530.0	0.90662	0.908462	0.913323	0.920719	0.936629	0.996328	1.095088	1.086817	
531.0	0.908248	0.91	0.914698	0.922295	0.940825	1.012213	1.101383	1.0824	
532.0	0.909804	0.911475	0.916046	0.923973	0.945835	1.029375	1.103348	1.077398	
533.0	0.911292	0.912894	0.917376	0.925786	0.951842	1.046772	1.101763	1.072177	
534.0	0.912717	0.914258	0.918694	0.927774	0.959045	1.062976	1.097607	1.066977	
535.0	0.914082	0.915575	0.920012	0.929986	0.967637	1.07646	1.091816	1.061946	
536.0	0.915391	0.916847	0.921339	0.932483	0.977761	1.086018	1.085151	1.057171	
537.0	0.916648	0.918079	0.922688	0.93534	0.989441	1.091122	1.078165	1.052693	
538.0	0.917855	0.919276	0.924075	0.938647	1.002478	1.091995	1.071228	1.048528	
539.0	0.919016	0.920441	0.925517	0.94251	1.016351	1.089406	1.064565	1.044672	
540.0	0.920382	0.921822	0.927266	0.947302	1.030686	1.084489	1.058258	1.041087	
541.0	0.921724	0.923199	0.929139	0.952959	1.043819	1.077957	1.052398	1.037783	
542.0	0.923017	0.924553	0.931146	0.95959	1.054348	1.070626	1.04701	1.034745	
543.0	0.924265	0.925888	0.933329	0.967287	1.061255	1.063104	1.042091	1.031954	
544.0	0.92547	0.927215	0.935739	0.976045	1.064186	1.055775	1.037616	1.029389	
545.0	0.926634	0.928542	0.938436	0.985675	1.06348	1.048867	1.033554	1.02703	
546.0	0.927759	0.92988	0.941487	0.995725	1.059956	1.042488	1.029872	1.02486	
547.0	0.928847	0.931242	0.944964	1.005459	1.054579	1.036675	1.026532	1.022862	
548.0	0.9299	0.932643	0.948931	1.013935	1.048221	1.031421	1.023504	1.021019	
549.0	0.930921	0.934101	0.95342	1.020257	1.04154	1.026698	1.020754	1.019318	
550.0	0.931909	0.935635	0.958404	1.023868	1.034974	1.022462	1.018254	1.017745	
551.0	0.932868	0.937264	0.963752	1.024718	1.028778	1.018669	1.01598	1.01629	
552.0	0.933798	0.939006	0.969188	1.023224	1.023082	1.015272	1.013906	1.014942	
553.0	0.934701	0.940867	0.974294	1.020054	1.017929	1.012229	1.012014	1.013691	
554.0	0.935578	0.942838	0.978585	1.015896	1.013314	1.0095	1.010283	1.012529	
555.0	0.93643	0.944879	0.981641	1.011317	1.009208	1.007049	1.008699	1.011448	
556.0	0.937259	0.946909	0.983256	1.006715	1.005567	1.004845	1.007247	1.010442	
557.0	0.938065	0.948814	0.983496	1.002333	1.002344	1.002859	1.005913	1.009504	
558.0	0.938849	0.950463	0.982636	0.998299	0.999492	1.001069	1.004687	1.008629	
559.0	0.939612	0.951751	0.981042	0.994666	0.996969	0.999451	1.003558	1.007811	
560.0	0.940356	0.952634	0.979058	0.991439	0.994734	0.997987	1.002517	1.007046	
561.0	0.941081	0.953141	0.976947	0.988596	0.992753	0.99666	1.001556	1.00633	
562.0	0.941787	0.953356	0.974886	0.986106	0.990995	0.995456	1.000669	1.00566	
563.0	0.942476	0.953377	0.972974	0.983932	0.989431	0.994361	0.999848	1.005031	
564.0	0.943087	0.953229	0.971192	0.981982	0.987996	0.99333	0.999059	1.00442	
565.0	0.943591	0.952954	0.969532	0.9802	0.986647	0.992335	0.998286	1.003816	
566.0	0.944083	0.952697	0.968089	0.978639	0.985436	0.991423	0.997566	1.003247	
567.0	0.944563	0.952482	0.966847	0.977271	0.984348	0.990585	0.996894	1.002709	
568.0	0.945031	0.952318	0.965783	0.976071	0.983367	0.989814	0.996266	1.002202	
569.0	0.945487	0.952207	0.964876	0.975016	0.982481	0.989104	0.99568	1.001723	
570.0	0.945933	0.952147	0.964105	0.974088	0.981681	0.98845	0.995131	1.001269	
571.0	0.946368	0.952132	0.963454	0.97327	0.980958	0.987846	0.994618	1.00084	
572.0	0.946794	0.952157	0.962905	0.972549	0.980302	0.987289	0.994137	1.000434	
573.0	0.947209	0.952217	0.962444	0.971914	0.979707	0.986773	0.993685	1.000048	
574.0	0.947616	0.952306	0.962059	0.971354	0.979168	0.986296	0.993262	0.999683	
575.0	0.948013	0.95242	0.96174	0.970859	0.978678	0.985854	0.992864	0.999336	
576.0	0.948401	0.952554	0.961478	0.970423	0.978232	0.985444	0.99249	0.999007	
577.0	0.948782	0.952706	0.961266	0.970039	0.977827	0.985064	0.992138	0.998694	
578.0	0.949154	0.952872	0.961097	0.9697	0.977459	0.984712	0.991807	0.998396	
579.0	0.949518	0.95305	0.960965	0.969403	0.977124	0.984385	0.991495	0.998114	
580.0	0.949875	0.953238	0.960865	0.969142	0.976819	0.984081	0.991202	0.997844	
581.0	0.950225	0.953433	0.960794	0.968914	0.976542	0.983799	0.990925	0.997588	
582.0	0.950567	0.953635	0.960748	0.968715	0.976291	0.983537	0.990664	0.997344	
583.0	0.950903	0.953842	0.960723	0.968542	0.976062	0.983293	0.990418	0.997111	
584.0	0.951232	0.954053	0.960718	0.968393	0.975854	0.983066	0.990186	0.996889	
585.0	0.951555	0.954266	0.960729	0.968266	0.975666	0.982856	0.989967	0.996677	
586.0	0.951871	0.954482	0.960755	0.968158	0.975495	0.98266	0.98976	0.996475	
587.0	0.952182	0.954699	0.960794	0.968067	0.975341	0.982478	0.989564	0.996282	
588.0	0.952487	0.954917	0.960845	0.967992	0.975202	0.982309	0.98938	0.996098	
589.0	0.952786	0.955135	0.960906	0.967931	0.975077	0.982152	0.989206	0.995922	
590.0	0.95308	0.955354	0.960975	0.967883	0.974964	0.982007	0.989041	0.995754	
591.0	0.953303	0.955508	0.960993	0.967794	0.974818	0.981834	0.988856	0.995573	
592.0	0.953477	0.955619	0.960979	0.967681	0.974653	0.981647	0.988662	0.995387	
593.0	0.953649	0.955732	0.960972	0.967579	0.9745	0.981471	0.988476	0.995207	
594.0	0.953817	0.955844	0.960972	0.967487	0.974356	0.981303	0.988298	0.995035	
595.0	0.953982	0.955957	0.960979	0.967404	0.974222	0.981144	0.988128	0.994869	
596.0	0.954144	0.956071	0.96099	0.96733	0.974097	0.980994	0.987966	0.994709	
597.0	0.954304	0.956184	0.961007	0.967263	0.973981	0.980851	0.98781	0.994555	
598.0	0.95446	0.956297	0.961028	0.967204	0.973872	0.980716	0.987661	0.994406	
599.0	0.954614	0.956409	0.961053	0.967151	0.973771	0.980588	0.987519	0.994263	
600.0	0.954766	0.956522	0.961082	0.967104	0.973676	0.980466	0.987382	0.994126	
601.0	0.954914	0.956633	0.961114	0.967064	0.973588	0.98035	0.987251	0.993993	
602.0	0.955061	0.956744	0.961149	0.967028	0.973506	0.980241	0.987126	0.993865	
603.0	0.955204	0.956855	0.961187	0.966997	0.973429	0.980136	0.987005	0.993741	
604.0	0.955346	0.956964	0.961227	0.966971	0.973358	0.980037	0.98689	0.993622	
605.0	0.955485	0.957073	0.961269	0.96695	0.973291	0.979943	0.986779	0.993506	
606.0	0.955622	0.957182	0.961313	0.966932	0.97323	0.979854	0.986673	0.993395	
607.0	0.955757	0.957289	0.961359	0.966917	0.973173	0.97977	0.986571	0.993288	
608.0	0.95589	0.957395	0.961406	0.966906	0.97312	0.979689	0.986473	0.993184	
609.0	0.956021	0.957501	0.961455	0.966899	0.97307	0.979613	0.98638	0.993083	
610.0	0.95615	0.957606	0.961505	0.966894	0.973025	0.97954	0.986289	0.992986	
611.0	0.956277	0.95771	0.961556	0.966892	0.972983	0.979472	0.986203	0.992893	
612.0	0.956402	0.957813	0.961609	0.966893	0.972944	0.979406	0.98612	0.992802	
613.0	0.956525	0.957915	0.961662	0.966896	0.972909	0.979344	0.98604	0.992714	
614.0	0.956647	0.958016	0.961716	0.966901	0.972876	0.979285	0.985963	0.992629	
615.0	0.956766	0.958116	0.961771	0.966908	0.972846	0.97923	0.985889	0.992547	
616.0	0.956884	0.958215	0.961826	0.966917	0.972819	0.979177	0.985818	0.992468	
617.0	0.957001	0.958314	0.961882	0.966928	0.972794	0.979126	0.98575	0.992391	
618.0	0.957116	0.958411	0.961939	0.966941	0.972772	0.979079	0.985685	0.992317	
619.0	0.957229	0.958508	0.961996	0.966955	0.972752	0.979034	0.985622	0.992245	
620.0	0.957346	0.958609	0.962058	0.966974	0.972737	0.978993	0.985562	0.992175	
621.0	0.957512	0.958756	0.96216	0.967028	0.972747	0.978969	0.985513	0.992109	
622.0	0.957675	0.958901	0.962263	0.967082	0.97276	0.978949	0.985466	0.992046	
623.0	0.957836	0.959045	0.962365	0.967137	0.972774	0.97893	0.985422	0.991985	
624.0	0.957994	0.959186	0.962467	0.967193	0.97279	0.978914	0.985381	0.991926	
625.0	0.95815	0.959327	0.962568	0.96725	0.972807	0.9789	0.985341	0.991869	
626.0	0.958304	0.959465	0.962669	0.967308	0.972826	0.978888	0.985304	0.991815	
627.0	0.958456	0.959602	0.962769	0.967366	0.972847	0.978877	0.985269	0.991763	
628.0	0.958605	0.959737	0.962869	0.967425	0.972869	0.978869	0.985235	0.991713	
629.0	0.958753	0.959871	0.962969	0.967484	0.972892	0.978862	0.985204	0.991665	
630.0	0.958898	0.960003	0.963068	0.967544	0.972916	0.978857	0.985175	0.991618	
631.0	0.959042	0.960133	0.963166	0.967604	0.972942	0.978853	0.985147	0.991573	
632.0	0.959183	0.960262	0.963264	0.967665	0.972968	0.978851	0.985121	0.99153	
633.0	0.959323	0.96039	0.963361	0.967726	0.972996	0.97885	0.985096	0.991489	
634.0	0.959461	0.960516	0.963457	0.967787	0.973024	0.97885	0.985074	0.991449	
635.0	0.959597	0.96064	0.963553	0.967848	0.973053	0.978852	0.985052	0.991411	
636.0	0.959731	0.960763	0.963649	0.96791	0.973083	0.978855	0.985032	0.991374	
637.0	0.959864	0.960885	0.963743	0.967972	0.973114	0.978859	0.985014	0.991339	
638.0	0.959995	0.961006	0.963837	0.968034	0.973145	0.978863	0.984996	0.991305	
639.0	0.960124	0.961125	0.963931	0.968096	0.973177	0.97887	0.98498	0.991272	
640.0	0.960252	0.961242	0.964023	0.968158	0.97321	0.978877	0.984965	0.991241	
641.0	0.960378	0.961359	0.964116	0.96822	0.973243	0.978885	0.984951	0.991211	
642.0	0.960502	0.961474	0.964207	0.968282	0.973277	0.978893	0.984939	0.991182	
643.0	0.960625	0.961588	0.964298	0.968344	0.973311	0.978903	0.984927	0.991154	
644.0	0.960747	0.961701	0.964388	0.968406	0.973346	0.978913	0.984917	0.991127	
645.0	0.960867	0.961812	0.964477	0.968468	0.973381	0.978925	0.984907	0.991101	
646.0	0.960986	0.961923	0.964566	0.96853	0.973417	0.978936	0.984898	0.991076	
647.0	0.961103	0.962032	0.964655	0.968592	0.973453	0.978949	0.984891	0.991053	
648.0	0.961219	0.96214	0.964742	0.968654	0.973489	0.978962	0.984884	0.99103	
649.0	0.961334	0.962247	0.964829	0.968715	0.973525	0.978976	0.984878	0.991008	
650.0	0.961447	0.962353	0.964915	0.968777	0.973562	0.978991	0.984872	0.990987	
651.0	0.961559	0.962457	0.965001	0.968838	0.973599	0.979006	0.984868	0.990967	
652.0	0.96167	0.962561	0.965086	0.968899	0.973637	0.979021	0.984864	0.990948	
653.0	0.961812	0.962695	0.9652	0.968987	0.973697	0.979056	0.984875	0.990939	
654.0	0.962	0.962874	0.965356	0.969114	0.973791	0.979119	0.984907	0.990944	
655.0	0.962186	0.963052	0.965512	0.969239	0.973885	0.979181	0.98494	0.99095	
656.0	0.96237	0.963227	0.965666	0.969364	0.973979	0.979244	0.984973	0.990956	
657.0	0.962551	0.963401	0.965818	0.969487	0.974071	0.979306	0.985006	0.990963	
658.0	0.96273	0.963572	0.965968	0.96961	0.974164	0.979369	0.98504	0.990971	
659.0	0.962907	0.963742	0.966118	0.969732	0.974256	0.979431	0.985074	0.990978	
660.0	0.963083	0.963909	0.966265	0.969852	0.974347	0.979493	0.985107	0.990987	
661.0	0.963256	0.964075	0.966411	0.969972	0.974438	0.979555	0.985142	0.990995	
662.0	0.963427	0.964239	0.966556	0.970091	0.974528	0.979617	0.985176	0.991004	
663.0	0.963596	0.964401	0.966699	0.970209	0.974618	0.979679	0.98521	0.991014	
664.0	0.963763	0.964562	0.966841	0.970325	0.974707	0.97974	0.985245	0.991023	
665.0	0.963929	0.96472	0.966982	0.970441	0.974796	0.979801	0.985279	0.991033	
666.0	0.964092	0.964877	0.967121	0.970556	0.974884	0.979862	0.985314	0.991044	
667.0	0.964254	0.965033	0.967259	0.97067	0.974971	0.979923	0.985349	0.991055	
668.0	0.964414	0.965186	0.967396	0.970783	0.975059	0.979984	0.985384	0.991065	
669.0	0.964572	0.965338	0.967531	0.970895	0.975145	0.980045	0.985419	0.991077	
670.0	0.964729	0.965489	0.967665	0.971007	0.975231	0.980105	0.985454	0.991088	
671.0	0.964884	0.965637	0.967798	0.971117	0.975317	0.980165	0.985489	0.9911	
672.0	0.965037	0.965785	0.967929	0.971226	0.975402	0.980225	0.985524	0.991112	
673.0	0.965188	0.96593	0.968059	0.971335	0.975486	0.980285	0.985559	0.991124	
674.0	0.965338	0.966075	0.968188	0.971443	0.97557	0.980344	0.985594	0.991137	
675.0	0.965487	0.966217	0.968316	0.971549	0.975653	0.980403	0.985629	0.991149	
676.0	0.965633	0.966359	0.968442	0.971655	0.975736	0.980462	0.985665	0.991162	
677.0	0.965779	0.966499	0.968568	0.97176	0.975818	0.980521	0.9857	0.991175	
678.0	0.965922	0.966637	0.968692	0.971865	0.9759	0.980579	0.985735	0.991189	
679.0	0.966065	0.966774	0.968815	0.971968	0.975981	0.980637	0.98577	0.991202	
680.0	0.966205	0.96691	0.968937	0.972071	0.976062	0.980695	0.985805	0.991216	
681.0	0.966345	0.967045	0.969058	0.972173	0.976142	0.980753	0.98584	0.991229	
682.0	0.966483	0.967178	0.969178	0.972274	0.976221	0.98081	0.985875	0.991243	
683.0	0.966619	0.967309	0.969296	0.972374	0.9763	0.980867	0.98591	0.991257	
684.0	0.966754	0.96744	0.969414	0.972473	0.976379	0.980924	0.985945	0.991271	
685.0	0.966888	0.967569	0.96953	0.972572	0.976457	0.980981	0.98598	0.991286	
686.0	0.967021	0.967697	0.969646	0.972669	0.976534	0.981037	0.986015	0.9913	
687.0	0.967152	0.967824	0.96976	0.972766	0.976611	0.981093	0.98605	0.991314	
688.0	0.967282	0.967949	0.969874	0.972863	0.976688	0.981148	0.986085	0.991329	
689.0	0.967401	0.968064	0.969978	0.97295	0.976757	0.981198	0.986115	0.991341	
690.0	0.967483	0.968143	0.970047	0.973007	0.976799	0.981226	0.986128	0.991341	
691.0	0.967564	0.968221	0.970115	0.973063	0.976841	0.981253	0.986142	0.991342	
692.0	0.967645	0.968298	0.970184	0.973118	0.976883	0.981281	0.986156	0.991343	
693.0	0.967725	0.968374	0.970251	0.973174	0.976924	0.981309	0.98617	0.991344	
694.0	0.967804	0.96845	0.970318	0.973229	0.976966	0.981336	0.986184	0.991346	
695.0	0.967882	0.968525	0.970385	0.973283	0.977007	0.981364	0.986198	0.991347	
696.0	0.96796	0.9686	0.970451	0.973338	0.977048	0.981391	0.986212	0.991349	
697.0	0.968037	0.968674	0.970517	0.973392	0.977089	0.981419	0.986226	0.991351	
698.0	0.968113	0.968747	0.970582	0.973445	0.97713	0.981446	0.98624	0.991354	
699.0	0.968189	0.96882	0.970647	0.973499	0.97717	0.981474	0.986255	0.991356	
700.0	0.968264	0.968892	0.970711	0.973552	0.977211	0.981501	0.986269	0.991358	
701.0	0.968339	0.968964	0.970775	0.973605	0.977251	0.981528	0.986284	0.991361	
702.0	0.968413	0.969035	0.970838	0.973657	0.977291	0.981556	0.986299	0.991364	
703.0	0.968486	0.969106	0.970901	0.973709	0.977331	0.981583	0.986313	0.991367	
704.0	0.968559	0.969176	0.970964	0.973761	0.977371	0.98161	0.986328	0.99137	
705.0	0.968631	0.969245	0.971026	0.973813	0.97741	0.981637	0.986343	0.991373	
706.0	0.968702	0.969314	0.971087	0.973864	0.97745	0.981664	0.986358	0.991377	
707.0	0.968773	0.969383	0.971148	0.973915	0.977489	0.981691	0.986373	0.99138	
708.0	0.968844	0.969451	0.971209	0.973965	0.977528	0.981718	0.986388	0.991384	
709.0	0.968914	0.969518	0.971269	0.974016	0.977567	0.981745	0.986403	0.991388	
710.0	0.968983	0.969585	0.971329	0.974066	0.977605	0.981772	0.986418	0.991392	
711.0	0.969052	0.969651	0.971389	0.974115	0.977644	0.981799	0.986433	0.991395	
712.0	0.969121	0.969717	0.971448	0.974165	0.977682	0.981826	0.986448	0.9914	
713.0	0.969188	0.969782	0.971507	0.974214	0.97772	0.981852	0.986463	0.991404	
714.0	0.969256	0.969847	0.971565	0.974263	0.977758	0.981879	0.986478	0.991408	
715.0	0.969323	0.969912	0.971623	0.974311	0.977796	0.981906	0.986494	0.991412	
716.0	0.969389	0.969976	0.971681	0.97436	0.977834	0.981932	0.986509	0.991417	
717.0	0.969455	0.970039	0.971738	0.974408	0.977871	0.981959	0.986524	0.991422	
718.0	0.96952	0.970102	0.971794	0.974456	0.977909	0.981985	0.986539	0.991426	
719.0	0.969585	0.970165	0.971851	0.974503	0.977946	0.982011	0.986555	0.991431	
720.0	0.969649	0.970227	0.971907	0.97455	0.977983	0.982037	0.98657	0.991436	
721.0	0.969713	0.970289	0.971963	0.974597	0.97802	0.982064	0.986585	0.991441	
722.0	0.969777	0.97035	0.972018	0.974644	0.978056	0.98209	0.986601	0.991446	
723.0	0.96984	0.970411	0.972073	0.97469	0.978093	0.982116	0.986616	0.991451	
724.0	0.969902	0.970471	0.972127	0.974736	0.978129	0.982141	0.986631	0.991456	
725.0	0.969964	0.970531	0.972182	0.974782	0.978165	0.982167	0.986647	0.991461	
726.0	0.970026	0.970591	0.972235	0.974828	0.978201	0.982193	0.986662	0.991466	
727.0	0.970087	0.97065	0.972289	0.974873	0.978237	0.982219	0.986677	0.991472	
728.0	0.970148	0.970709	0.972342	0.974918	0.978273	0.982244	0.986693	0.991477	
729.0	0.970208	0.970767	0.972395	0.974963	0.978308	0.98227	0.986708	0.991483	
730.0	0.970321	0.970877	0.972496	0.975052	0.978382	0.982327	0.986747	0.991504	
731.0	0.970454	0.971007	0.972617	0.975159	0.978471	0.982397	0.986797	0.991532	
732.0	0.970587	0.971136	0.972737	0.975265	0.97856	0.982466	0.986845	0.99156	
733.0	0.970718	0.971264	0.972856	0.97537	0.978648	0.982535	0.986894	0.991588	
734.0	0.970848	0.971391	0.972974	0.975474	0.978735	0.982603	0.986942	0.991616	
735.0	0.970977	0.971517	0.973091	0.975577	0.978822	0.982671	0.98699	0.991643	
736.0	0.971105	0.971642	0.973207	0.97568	0.978908	0.982739	0.987038	0.991671	
737.0	0.971232	0.971766	0.973321	0.975781	0.978993	0.982806	0.987085	0.991698	
738.0	0.971358	0.971888	0.973435	0.975882	0.979078	0.982872	0.987132	0.991725	
739.0	0.971482	0.97201	0.973548	0.975982	0.979162	0.982938	0.987179	0.991752	
740.0	0.971606	0.97213	0.97366	0.976081	0.979245	0.983004	0.987225	0.991779	
741.0	0.971728	0.97225	0.973771	0.97618	0.979328	0.983069	0.987271	0.991805	
742.0	0.971849	0.972368	0.973881	0.976277	0.97941	0.983133	0.987317	0.991832	
743.0	0.97197	0.972485	0.973991	0.976374	0.979491	0.983197	0.987363	0.991858	
744.0	0.972089	0.972602	0.974099	0.97647	0.979572	0.983261	0.987408	0.991885	
745.0	0.972207	0.972717	0.974206	0.976565	0.979652	0.983324	0.987453	0.991911	
746.0	0.972324	0.972832	0.974313	0.97666	0.979732	0.983387	0.987497	0.991937	
747.0	0.97244	0.972945	0.974418	0.976754	0.979811	0.983449	0.987542	0.991962	
748.0	0.972556	0.973058	0.974523	0.976847	0.979889	0.983511	0.987586	0.991988	
749.0	0.97267	0.973169	0.974627	0.976939	0.979967	0.983573	0.98763	0.992014	
750.0	0.972783	0.97328	0.97473	0.97703	0.980044	0.983634	0.987673	0.992039	
751.0	0.972896	0.97339	0.974832	0.977121	0.980121	0.983694	0.987716	0.992064	
752.0	0.973007	0.973498	0.974934	0.977211	0.980197	0.983754	0.987759	0.992089	
753.0	0.973117	0.973606	0.975034	0.977301	0.980273	0.983814	0.987802	0.992114	
754.0	0.973227	0.973713	0.975134	0.97739	0.980348	0.983873	0.987844	0.992139	
755.0	0.973336	0.973819	0.975233	0.977478	0.980422	0.983932	0.987886	0.992164	
756.0	0.973443	0.973925	0.975331	0.977565	0.980496	0.983991	0.987928	0.992189	
757.0	0.97355	0.974029	0.975429	0.977652	0.980569	0.984049	0.98797	0.992213	
758.0	0.973656	0.974133	0.975525	0.977738	0.980642	0.984106	0.988011	0.992237	
759.0	0.973762	0.974236	0.975621	0.977823	0.980714	0.984164	0.988052	0.992262	
760.0	0.973866	0.974337	0.975716	0.977908	0.980786	0.98422	0.988093	0.992286	
761.0	0.973969	0.974439	0.975811	0.977992	0.980857	0.984277	0.988133	0.99231	
762.0	0.974072	0.974539	0.975905	0.978076	0.980928	0.984333	0.988174	0.992333	
763.0	0.974174	0.974638	0.975997	0.978158	0.980998	0.984389	0.988214	0.992357	
764.0	0.974275	0.974737	0.97609	0.978241	0.981067	0.984444	0.988253	0.992381	
765.0	0.974375	0.974835	0.976181	0.978322	0.981137	0.984499	0.988293	0.992404	
766.0	0.974475	0.974932	0.976272	0.978403	0.981205	0.984553	0.988332	0.992427	
767.0	0.974573	0.975029	0.976362	0.978483	0.981274	0.984608	0.988371	0.992451	
768.0	0.974671	0.975125	0.976452	0.978563	0.981341	0.984661	0.98841	0.992474	
769.0	0.974768	0.97522	0.97654	0.978643	0.981408	0.984715	0.988448	0.992497	
770.0	0.974865	0.975314	0.976628	0.978721	0.981475	0.984768	0.988487	0.992519	
771.0	0.97496	0.975407	0.976716	0.978799	0.981541	0.984821	0.988525	0.992542	
772.0	0.975055	0.9755	0.976803	0.978877	0.981607	0.984873	0.988563	0.992565	
773.0	0.975149	0.975592	0.976889	0.978954	0.981673	0.984925	0.9886	0.992587	
774.0	0.975243	0.975684	0.976974	0.97903	0.981737	0.984977	0.988638	0.99261	
775.0	0.975335	0.975773	0.977058	0.979105	0.981801	0.985027	0.988674	0.992631	
776.0	0.975415	0.975852	0.977131	0.97917	0.981856	0.98507	0.988704	0.992648	
777.0	0.975495	0.97593	0.977204	0.979234	0.98191	0.985113	0.988734	0.992666	
778.0	0.975574	0.976007	0.977276	0.979298	0.981964	0.985156	0.988764	0.992683	
779.0	0.975653	0.976084	0.977347	0.979362	0.982017	0.985198	0.988794	0.9927	
780.0	0.975731	0.97616	0.977418	0.979425	0.98207	0.98524	0.988824	0.992717	
781.0	0.975808	0.976236	0.977489	0.979487	0.982123	0.985281	0.988853	0.992733	
782.0	0.975885	0.97631	0.977559	0.97955	0.982176	0.985322	0.988883	0.99275	
783.0	0.975961	0.976385	0.977628	0.979611	0.982228	0.985363	0.988912	0.992767	
784.0	0.976036	0.976459	0.977697	0.979672	0.982279	0.985404	0.988941	0.992784	
785.0	0.976111	0.976532	0.977765	0.979733	0.982331	0.985445	0.98897	0.9928	
786.0	0.976186	0.976604	0.977833	0.979794	0.982382	0.985485	0.988998	0.992817	
787.0	0.976259	0.976677	0.9779	0.979853	0.982432	0.985525	0.989026	0.992833	
788.0	0.976333	0.976748	0.977967	0.979913	0.982482	0.985565	0.989055	0.992849	
789.0	0.976405	0.976819	0.978033	0.979972	0.982532	0.985604	0.989083	0.992866	
790.0	0.976477	0.97689	0.978099	0.980031	0.982582	0.985643	0.989111	0.992882	
791.0	0.976549	0.97696	0.978164	0.980089	0.982631	0.985682	0.989138	0.992898	
792.0	0.97662	0.977029	0.978229	0.980147	0.98268	0.985721	0.989166	0.992914	
793.0	0.97669	0.977098	0.978293	0.980204	0.982728	0.985759	0.989193	0.99293	
794.0	0.97676	0.977166	0.978357	0.980261	0.982777	0.985798	0.989221	0.992946	
795.0	0.97683	0.977234	0.978421	0.980317	0.982825	0.985835	0.989248	0.992961	
796.0	0.976899	0.977301	0.978484	0.980374	0.982872	0.985873	0.989275	0.992977	
797.0	0.976967	0.977368	0.978546	0.980429	0.982919	0.985911	0.989302	0.992993	
798.0	0.977035	0.977435	0.978608	0.980485	0.982966	0.985948	0.989328	0.993008	
799.0	0.977102	0.977501	0.97867	0.98054	0.983013	0.985985	0.989355	0.993024	
800.0	0.977169	0.977566	0.978731	0.980594	0.983059	0.986022	0.989381	0.993039	
801.0	0.977236	0.977631	0.978792	0.980649	0.983105	0.986058	0.989407	0.993055	
802.0	0.977302	0.977696	0.978852	0.980702	0.983151	0.986095	0.989433	0.99307	
803.0	0.977367	0.97776	0.978912	0.980756	0.983196	0.986131	0.989459	0.993085	
804.0	0.977432	0.977823	0.978972	0.980809	0.983241	0.986166	0.989485	0.9931	
805.0	0.977497	0.977886	0.979031	0.980862	0.983286	0.986202	0.989511	0.993115	
806.0	0.977561	0.977949	0.979089	0.980914	0.983331	0.986238	0.989536	0.99313	
807.0	0.977624	0.978011	0.979147	0.980966	0.983375	0.986273	0.989561	0.993145	
808.0	0.977687	0.978073	0.979205	0.981018	0.983419	0.986308	0.989587	0.99316	
809.0	0.97775	0.978134	0.979263	0.981069	0.983463	0.986342	0.989612	0.993175	
810.0	0.977812	0.978195	0.97932	0.98112	0.983506	0.986377	0.989636	0.99319	
811.0	0.977874	0.978256	0.979376	0.981171	0.983549	0.986411	0.989661	0.993204	
812.0	0.977936	0.978316	0.979433	0.981221	0.983592	0.986445	0.989686	0.993219	
813.0	0.977997	0.978375	0.979488	0.981271	0.983634	0.986479	0.98971	0.993233	
814.0	0.978057	0.978435	0.979544	0.981321	0.983677	0.986513	0.989735	0.993248	
815.0	0.978117	0.978494	0.979599	0.98137	0.983719	0.986547	0.989759	0.993262	
816.0	0.978177	0.978552	0.979654	0.981419	0.98376	0.98658	0.989783	0.993276	
817.0	0.978236	0.97861	0.979708	0.981468	0.983802	0.986613	0.989807	0.993291	
818.0	0.978295	0.978668	0.979762	0.981516	0.983843	0.986646	0.989831	0.993305	
819.0	0.978354	0.978725	0.979816	0.981564	0.983884	0.986679	0.989854	0.993319	
820.0	0.978412	0.978782	0.979869	0.981612	0.983925	0.986711	0.989878	0.993333	
821.0	0.978469	0.978838	0.979922	0.98166	0.983965	0.986744	0.989901	0.993347	
822.0	0.978527	0.978894	0.979975	0.981707	0.984005	0.986776	0.989924	0.993361	
823.0	0.978584	0.97895	0.980027	0.981754	0.984045	0.986808	0.989948	0.993375	
824.0	0.97864	0.979005	0.980079	0.9818	0.984085	0.986839	0.989971	0.993388	
825.0	0.978696	0.97906	0.98013	0.981847	0.984124	0.986871	0.989994	0.993402	
826.0	0.978752	0.979115	0.980182	0.981892	0.984164	0.986902	0.990016	0.993416	
827.0	0.978793	0.979155	0.980218	0.981925	0.984191	0.986924	0.990032	0.993424	
828.0	0.978811	0.979172	0.980235	0.981939	0.984202	0.986932	0.990036	0.993425	
829.0	0.978829	0.97919	0.98025	0.981952	0.984213	0.986939	0.99004	0.993426	
830.0	0.978847	0.979207	0.980266	0.981966	0.984223	0.986947	0.990045	0.993427	
831.0	0.978865	0.979225	0.980282	0.98198	0.984234	0.986955	0.990049	0.993429	
832.0	0.978883	0.979242	0.980298	0.981993	0.984245	0.986962	0.990053	0.99343	
833.0	0.978901	0.979259	0.980314	0.982007	0.984256	0.98697	0.990058	0.993431	
834.0	0.978919	0.979277	0.98033	0.98202	0.984267	0.986978	0.990063	0.993432	
835.0	0.978936	0.979294	0.980345	0.982034	0.984277	0.986985	0.990067	0.993434	
836.0	0.978954	0.979311	0.980361	0.982047	0.984288	0.986993	0.990072	0.993435	
837.0	0.978972	0.979328	0.980377	0.98206	0.984299	0.987001	0.990076	0.993436	
838.0	0.978989	0.979345	0.980392	0.982074	0.98431	0.987008	0.990081	0.993438	
839.0	0.979007	0.979362	0.980408	0.982087	0.98432	0.987016	0.990085	0.993439	
840.0	0.979025	0.979379	0.980424	0.982101	0.984331	0.987024	0.99009	0.993441	
841.0	0.979042	0.979397	0.980439	0.982114	0.984342	0.987032	0.990095	0.993442	
842.0	0.97906	0.979413	0.980455	0.982127	0.984352	0.98704	0.990099	0.993444	
843.0	0.979077	0.97943	0.98047	0.982141	0.984363	0.987047	0.990104	0.993446	
844.0	0.979094	0.979447	0.980486	0.982154	0.984374	0.987055	0.990109	0.993447	
845.0	0.979112	0.979464	0.980501	0.982167	0.984385	0.987063	0.990114	0.993449	
846.0	0.979129	0.979481	0.980516	0.982181	0.984395	0.987071	0.990119	0.993451	
847.0	0.979146	0.979498	0.980532	0.982194	0.984406	0.987079	0.990123	0.993452	
848.0	0.979164	0.979515	0.980547	0.982207	0.984416	0.987086	0.990128	0.993454	
849.0	0.979181	0.979531	0.980563	0.98222	0.984427	0.987094	0.990133	0.993456	
850.0	0.979198	0.979548	0.980578	0.982234	0.984438	0.987102	0.990138	0.993458	
851.0	0.979215	0.979564	0.980593	0.982247	0.984449	0.98711	0.990143	0.99346	
852.0	0.979232	0.979581	0.980608	0.98226	0.984459	0.987118	0.990148	0.993461	
853.0	0.979249	0.979598	0.980624	0.982273	0.98447	0.987126	0.990153	0.993463	
854.0	0.979266	0.979614	0.980639	0.982286	0.984481	0.987134	0.990158	0.993465	
855.0	0.979283	0.97963	0.980654	0.9823	0.984491	0.987142	0.990163	0.993467	
856.0	0.9793	0.979647	0.980669	0.982313	0.984502	0.987149	0.990168	0.993469	
857.0	0.979317	0.979663	0.980684	0.982326	0.984513	0.987157	0.990173	0.993471	
858.0	0.979334	0.97968	0.980699	0.982339	0.984523	0.987165	0.990178	0.993473	
859.0	0.97935	0.979696	0.980714	0.982352	0.984534	0.987173	0.990183	0.993475	
860.0	0.979367	0.979712	0.980729	0.982365	0.984544	0.987181	0.990188	0.993477	
861.0	0.979384	0.979729	0.980744	0.982378	0.984555	0.987189	0.990193	0.993479	
862.0	0.9794	0.979745	0.980759	0.982391	0.984565	0.987197	0.990198	0.993482	
863.0	0.979417	0.979761	0.980774	0.982404	0.984576	0.987205	0.990203	0.993484	
864.0	0.979434	0.979777	0.980789	0.982417	0.984586	0.987213	0.990208	0.993486	
865.0	0.97945	0.979793	0.980803	0.98243	0.984597	0.987221	0.990213	0.993488	
866.0	0.979467	0.979809	0.980818	0.982442	0.984608	0.987228	0.990218	0.99349	
867.0	0.979483	0.979825	0.980833	0.982455	0.984618	0.987236	0.990223	0.993492	
868.0	0.979499	0.979841	0.980848	0.982468	0.984629	0.987244	0.990228	0.993495	
869.0	0.979516	0.979857	0.980862	0.982481	0.984639	0.987252	0.990233	0.993497	
870.0	0.979532	0.979873	0.980877	0.982494	0.98465	0.98726	0.990239	0.993499	
871.0	0.979548	0.979889	0.980892	0.982507	0.98466	0.987268	0.990244	0.993501	
872.0	0.979565	0.979905	0.980906	0.98252	0.984671	0.987276	0.990249	0.993504	
873.0	0.979581	0.97992	0.980921	0.982532	0.984681	0.987284	0.990254	0.993506	
874.0	0.979597	0.979936	0.980935	0.982545	0.984692	0.987292	0.990259	0.993509	
875.0	0.979613	0.979952	0.98095	0.982558	0.984702	0.9873	0.990264	0.993511	
876.0	0.979629	0.979968	0.980965	0.98257	0.984713	0.987308	0.99027	0.993513	
877.0	0.979645	0.979983	0.980979	0.982583	0.984723	0.987315	0.990275	0.993516	
878.0	0.979661	0.979999	0.980993	0.982596	0.984733	0.987323	0.99028	0.993518	
879.0	0.979677	0.980015	0.981008	0.982608	0.984744	0.987331	0.990285	0.99352	
880.0	0.979693	0.98003	0.981022	0.982621	0.984754	0.987339	0.990291	0.993523	
881.0	0.979709	0.980045	0.981036	0.982633	0.984764	0.987347	0.990296	0.993525	
882.0	0.979725	0.980061	0.981051	0.982646	0.984775	0.987355	0.990301	0.993528	
883.0	0.979741	0.980076	0.981065	0.982658	0.984785	0.987363	0.990306	0.99353	
884.0	0.979757	0.980092	0.981079	0.982671	0.984796	0.987371	0.990311	0.993533	
885.0	0.979772	0.980107	0.981094	0.982683	0.984806	0.987379	0.990317	0.993536	
886.0	0.979776	0.98011	0.981096	0.982685	0.984807	0.987379	0.990316	0.993534	
887.0	0.97976	0.980094	0.981081	0.982671	0.984793	0.987367	0.990306	0.993526	
888.0	0.979744	0.980079	0.981066	0.982656	0.98478	0.987355	0.990296	0.993518	
889.0	0.979729	0.980064	0.981051	0.982642	0.984767	0.987343	0.990286	0.99351	
890.0	0.979714	0.980049	0.981036	0.982628	0.984754	0.987332	0.990276	0.993503	
891.0	0.979699	0.980034	0.981022	0.982614	0.984741	0.98732	0.990267	0.993495	
892.0	0.979684	0.98002	0.981008	0.982601	0.984728	0.987309	0.990257	0.993488	
893.0	0.97967	0.980005	0.980994	0.982587	0.984716	0.987298	0.990248	0.99348	
894.0	0.979656	0.979991	0.98098	0.982574	0.984704	0.987287	0.990238	0.993473	
895.0	0.979641	0.979977	0.980966	0.982561	0.984691	0.987276	0.990229	0.993466	
896.0	0.979627	0.979963	0.980952	0.982548	0.984679	0.987265	0.99022	0.993459	
897.0	0.979614	0.979949	0.980939	0.982535	0.984668	0.987255	0.990211	0.993451	
898.0	0.9796	0.979936	0.980926	0.982522	0.984656	0.987244	0.990202	0.993445	
899.0	0.979587	0.979922	0.980913	0.98251	0.984644	0.987234	0.990193	0.993437	
900.0	0.979573	0.979909	0.9809	0.982498	0.984633	0.987224	0.990185	0.993431	
901.0	0.97956	0.979896	0.980887	0.982486	0.984622	0.987214	0.990176	0.993424	
902.0	0.979547	0.979883	0.980875	0.982473	0.98461	0.987204	0.990168	0.993417	
903.0	0.979535	0.979871	0.980862	0.982462	0.984599	0.987194	0.990159	0.993411	
904.0	0.979522	0.979858	0.98085	0.98245	0.984589	0.987184	0.990151	0.993404	
905.0	0.97951	0.979846	0.980838	0.982438	0.984578	0.987174	0.990143	0.993398	
906.0	0.979497	0.979834	0.980826	0.982427	0.984567	0.987165	0.990135	0.993391	
907.0	0.979485	0.979822	0.980814	0.982416	0.984557	0.987156	0.990127	0.993385	
908.0	0.979474	0.97981	0.980803	0.982405	0.984546	0.987146	0.990119	0.993379	
909.0	0.979462	0.979798	0.980791	0.982394	0.984536	0.987137	0.990111	0.993373	
910.0	0.97945	0.979787	0.98078	0.982383	0.984526	0.987128	0.990104	0.993367	
911.0	0.979439	0.979775	0.980769	0.982372	0.984516	0.987119	0.990096	0.993361	
912.0	0.979427	0.979764	0.980758	0.982361	0.984506	0.98711	0.990089	0.993354	
913.0	0.979416	0.979753	0.980747	0.982351	0.984497	0.987102	0.990081	0.993349	
914.0	0.979405	0.979742	0.980736	0.982341	0.984487	0.987093	0.990074	0.993343	
915.0	0.979394	0.979731	0.980726	0.982331	0.984477	0.987085	0.990067	0.993337	
916.0	0.979384	0.979721	0.980715	0.982321	0.984468	0.987076	0.990059	0.993331	
917.0	0.979373	0.97971	0.980705	0.982311	0.984459	0.987068	0.990052	0.993326	
918.0	0.979363	0.9797	0.980695	0.982301	0.98445	0.98706	0.990045	0.99332	
919.0	0.979353	0.97969	0.980685	0.982291	0.984441	0.987052	0.990039	0.993315	
920.0	0.979342	0.97968	0.980675	0.982282	0.984432	0.987044	0.990032	0.993309	
921.0	0.979333	0.97967	0.980665	0.982272	0.984423	0.987036	0.990025	0.993304	
922.0	0.979323	0.97966	0.980656	0.982263	0.984415	0.987028	0.990018	0.993299	
923.0	0.979313	0.97965	0.980646	0.982254	0.984406	0.98702	0.990012	0.993293	
924.0	0.979303	0.979641	0.980637	0.982245	0.984397	0.987013	0.990005	0.993288	
925.0	0.979294	0.979631	0.980628	0.982236	0.984389	0.987005	0.989999	0.993283	
926.0	0.979285	0.979622	0.980619	0.982228	0.984381	0.986998	0.989993	0.993278	
927.0	0.979276	0.979613	0.98061	0.982219	0.984373	0.986991	0.989986	0.993273	
928.0	0.979267	0.979604	0.980601	0.98221	0.984365	0.986984	0.98998	0.993268	
929.0	0.979258	0.979595	0.980592	0.982202	0.984357	0.986976	0.989974	0.993263	
930.0	0.979249	0.979586	0.980583	0.982194	0.984349	0.98697	0.989968	0.993258	
931.0	0.97924	0.979578	0.980575	0.982185	0.984342	0.986962	0.989962	0.993253	
932.0	0.979232	0.979569	0.980567	0.982177	0.984334	0.986956	0.989956	0.993249	
933.0	0.979223	0.979561	0.980558	0.982169	0.984327	0.986949	0.98995	0.993244	
934.0	0.979215	0.979553	0.98055	0.982162	0.984319	0.986942	0.989945	0.993239	
935.0	0.979207	0.979545	0.980542	0.982154	0.984312	0.986936	0.989939	0.993235	
936.0	0.979199	0.979537	0.980534	0.982146	0.984305	0.986929	0.989933	0.99323	
937.0	0.979191	0.979529	0.980527	0.982139	0.984298	0.986923	0.989928	0.993226	
938.0	0.979183	0.979521	0.980519	0.982131	0.984291	0.986916	0.989922	0.993222	
939.0	0.979175	0.979513	0.980511	0.982124	0.984284	0.98691	0.989917	0.993217	
940.0	0.979168	0.979506	0.980504	0.982117	0.984277	0.986904	0.989912	0.993213	
941.0	0.97916	0.979499	0.980497	0.98211	0.98427	0.986898	0.989907	0.993209	
942.0	0.979153	0.979491	0.980489	0.982103	0.984264	0.986892	0.989901	0.993205	
943.0	0.979146	0.979484	0.980482	0.982096	0.984257	0.986886	0.989896	0.9932	
944.0	0.979139	0.979477	0.980475	0.982089	0.984251	0.98688	0.989891	0.993196	
945.0	0.979132	0.97947	0.980468	0.982082	0.984245	0.986875	0.989886	0.993192	
946.0	0.979125	0.979463	0.980462	0.982076	0.984238	0.986869	0.989881	0.993188	
947.0	0.979118	0.979456	0.980455	0.982069	0.984232	0.986863	0.989877	0.993184	
948.0	0.979111	0.97945	0.980448	0.982063	0.984226	0.986858	0.989872	0.993181	
949.0	0.979105	0.979443	0.980442	0.982057	0.98422	0.986852	0.989867	0.993177	
950.0	0.979098	0.979437	0.980436	0.98205	0.984214	0.986847	0.989863	0.993173	
951.0	0.979092	0.97943	0.980429	0.982044	0.984208	0.986842	0.989858	0.993169	
952.0	0.979086	0.979424	0.980423	0.982038	0.984203	0.986836	0.989853	0.993165	
953.0	0.97908	0.979418	0.980417	0.982032	0.984197	0.986831	0.989849	0.993162	
954.0	0.979078	0.979416	0.980416	0.98203	0.984195	0.986829	0.989847	0.99316	
955.0	0.979088	0.979426	0.980424	0.982038	0.984202	0.986834	0.98985	0.993161	
956.0	0.979098	0.979436	0.980433	0.982046	0.984208	0.986839	0.989853	0.993163	
957.0	0.979108	0.979445	0.980442	0.982054	0.984214	0.986844	0.989856	0.993164	
958.0	0.979117	0.979455	0.980451	0.982062	0.984221	0.986849	0.98986	0.993166	
959.0	0.979127	0.979464	0.98046	0.982069	0.984227	0.986854	0.989863	0.993168	
960.0	0.979137	0.979474	0.980469	0.982077	0.984234	0.986859	0.989866	0.993169	
961.0	0.979147	0.979483	0.980477	0.982085	0.98424	0.986864	0.98987	0.993171	
962.0	0.979157	0.979493	0.980486	0.982093	0.984247	0.986869	0.989873	0.993173	
963.0	0.979167	0.979502	0.980495	0.982101	0.984253	0.986874	0.989877	0.993174	
964.0	0.979176	0.979512	0.980504	0.982109	0.98426	0.986879	0.98988	0.993176	
965.0	0.979186	0.979522	0.980513	0.982116	0.984266	0.986884	0.989883	0.993178	
966.0	0.979196	0.979531	0.980522	0.982124	0.984273	0.986889	0.989887	0.99318	
967.0	0.979206	0.979541	0.980531	0.982132	0.984279	0.986894	0.98989	0.993181	
968.0	0.979216	0.97955	0.98054	0.98214	0.984286	0.986899	0.989894	0.993183	
969.0	0.979226	0.97956	0.980549	0.982148	0.984292	0.986904	0.989897	0.993185	
970.0	0.979235	0.97957	0.980557	0.982156	0.984299	0.986909	0.989901	0.993187	
971.0	0.979245	0.979579	0.980566	0.982163	0.984305	0.986914	0.989904	0.993188	
972.0	0.979255	0.979589	0.980575	0.982171	0.984312	0.986919	0.989908	0.99319	
973.0	0.979265	0.979598	0.980584	0.982179	0.984319	0.986924	0.989911	0.993192	
974.0	0.979275	0.979608	0.980593	0.982187	0.984325	0.986929	0.989915	0.993194	
975.0	0.979285	0.979618	0.980602	0.982195	0.984332	0.986934	0.989918	0.993196	
976.0	0.979294	0.979627	0.980611	0.982203	0.984339	0.98694	0.989922	0.993198	
977.0	0.979304	0.979637	0.98062	0.982211	0.984345	0.986945	0.989925	0.993199	
978.0	0.979314	0.979647	0.980629	0.982219	0.984352	0.98695	0.989929	0.993201	
979.0	0.979324	0.979656	0.980638	0.982227	0.984358	0.986955	0.989932	0.993203	
980.0	0.979334	0.979666	0.980647	0.982235	0.984365	0.98696	0.989936	0.993205	
981.0	0.979344	0.979675	0.980656	0.982243	0.984372	0.986965	0.989939	0.993207	
982.0	0.979354	0.979685	0.980665	0.982251	0.984378	0.986971	0.989943	0.993209	
983.0	0.979363	0.979695	0.980674	0.982258	0.984385	0.986976	0.989947	0.993211	
984.0	0.979373	0.979704	0.980683	0.982266	0.984392	0.986981	0.98995	0.993213	
985.0	0.979383	0.979714	0.980692	0.982274	0.984398	0.986986	0.989954	0.993215	
986.0	0.979393	0.979724	0.980701	0.982282	0.984405	0.986991	0.989957	0.993217	
987.0	0.979403	0.979733	0.98071	0.98229	0.984412	0.986997	0.989961	0.993219	
988.0	0.979413	0.979743	0.980719	0.982298	0.984418	0.987002	0.989965	0.993221	
989.0	0.979422	0.979752	0.980728	0.982306	0.984425	0.987007	0.989969	0.993223	
990.0	0.979432	0.979762	0.980737	0.982314	0.984432	0.987012	0.989972	0.993225	
991.0	0.979442	0.979772	0.980746	0.982322	0.984438	0.987017	0.989976	0.993227	
992.0	0.979452	0.979781	0.980755	0.98233	0.984445	0.987023	0.98998	0.993229	
993.0	0.979462	0.979791	0.980763	0.982338	0.984452	0.987028	0.989983	0.993231	
994.0	0.979472	0.979801	0.980772	0.982346	0.984458	0.987033	0.989987	0.993233	
995.0	0.979481	0.97981	0.980781	0.982354	0.984465	0.987039	0.98999	0.993235	
996.0	0.979491	0.97982	0.98079	0.982362	0.984472	0.987044	0.989994	0.993237	
997.0	0.979501	0.979829	0.980799	0.98237	0.984479	0.987049	0.989998	0.993239	
998.0	0.979511	0.979839	0.980808	0.982378	0.984485	0.987054	0.990002	0.993241	
999.0	0.979521	0.979848	0.980817	0.982386	0.984492	0.98706	0.990005	0.993243	
1000.0	0.979531	0.979858	0.980826	0.982394	0.984499	0.987065	0.990009	0.993245	
