wavelength	0.0	10.0	20.0	30.0	40.0	50.0	60.0	70.0
251.0	0.2936	0.298859	0.315038	0.343661	0.387765	0.451573	0.539756	0.657101	
252.0	0.292692	0.297909	0.313995	0.342551	0.386662	0.450552	0.538872	0.656413	
253.0	0.291745	0.296928	0.312947	0.341464	0.385604	0.449584	0.538042	0.655771	
254.0	0.290782	0.29594	0.311911	0.34041	0.384591	0.448664	0.537257	0.655167	
255.0	0.289833	0.294973	0.31091	0.339405	0.383635	0.447801	0.536524	0.654607	
256.0	0.288918	0.294043	0.309956	0.338457	0.382737	0.446993	0.53584	0.654087	
257.0	0.288047	0.293161	0.309057	0.337567	0.381897	0.446237	0.535199	0.653603	
258.0	0.287228	0.292332	0.308214	0.336733	0.381108	0.445524	0.534595	0.653147	
259.0	0.286402	0.291497	0.307365	0.335888	0.380297	0.444777	0.533946	0.652647	
260.0	0.28559	0.290676	0.306529	0.335052	0.379487	0.44402	0.533282	0.652129	
261.0	0.284799	0.289875	0.305712	0.334234	0.378691	0.443274	0.532625	0.651619	
262.0	0.284015	0.289083	0.304904	0.333424	0.377902	0.442535	0.531974	0.651114	
263.0	0.283231	0.288291	0.304099	0.332619	0.377119	0.441802	0.53133	0.650616	
264.0	0.282272	0.287323	0.303116	0.331629	0.376146	0.440877	0.530507	0.64997	
265.0	0.280629	0.285665	0.30142	0.329896	0.374399	0.439172	0.528945	0.648704	
266.0	0.278992	0.284013	0.299734	0.328175	0.372666	0.437481	0.527398	0.647455	
267.0	0.277362	0.28237	0.298059	0.326468	0.370949	0.435808	0.525869	0.646221	
268.0	0.275744	0.280739	0.296398	0.324776	0.369248	0.434151	0.524358	0.645004	
269.0	0.274137	0.279121	0.294751	0.3231	0.367564	0.432513	0.522866	0.643806	
270.0	0.272538	0.27751	0.293113	0.321434	0.365888	0.430881	0.521377	0.642609	
271.0	0.270949	0.275911	0.291487	0.319779	0.364223	0.429257	0.519895	0.641418	
272.0	0.269379	0.274331	0.289881	0.318146	0.362579	0.427655	0.518436	0.640248	
273.0	0.267828	0.27277	0.288296	0.316533	0.360958	0.426076	0.517002	0.639102	
274.0	0.266297	0.271229	0.286732	0.314943	0.359359	0.424522	0.515592	0.637979	
275.0	0.264786	0.269709	0.285189	0.313375	0.357784	0.422993	0.514209	0.636881	
276.0	0.262758	0.267665	0.283102	0.311236	0.355616	0.420869	0.51227	0.635323	
277.0	0.260211	0.265095	0.280468	0.308524	0.35285	0.418145	0.509769	0.633299	
278.0	0.257684	0.262544	0.277855	0.305831	0.350104	0.415441	0.507287	0.631293	
279.0	0.255179	0.260015	0.275263	0.303159	0.347379	0.412757	0.504826	0.629307	
280.0	0.252696	0.257509	0.272694	0.300509	0.344675	0.410095	0.502388	0.627341	
281.0	0.250237	0.255026	0.270148	0.297882	0.341993	0.407456	0.499973	0.625395	
282.0	0.247672	0.252437	0.267491	0.295138	0.339192	0.4047	0.497453	0.623368	
283.0	0.244605	0.249338	0.264305	0.291846	0.33583	0.401396	0.494437	0.62094	
284.0	0.24155	0.24625	0.261131	0.288562	0.332475	0.398099	0.491426	0.618518	
285.0	0.238508	0.243176	0.257968	0.285287	0.329126	0.394806	0.48842	0.6161	
286.0	0.23548	0.240114	0.254816	0.282021	0.325784	0.391518	0.485418	0.613684	
287.0	0.232465	0.237066	0.251676	0.278764	0.322448	0.388233	0.482419	0.611269	
288.0	0.229464	0.23403	0.248547	0.275515	0.319116	0.384951	0.479421	0.608855	
289.0	0.22566	0.230179	0.244568	0.271373	0.314858	0.380744	0.475562	0.60573	
290.0	0.2215	0.225965	0.24021	0.266827	0.310175	0.376108	0.471301	0.602271	
291.0	0.217329	0.221739	0.235834	0.262258	0.30546	0.371436	0.467004	0.598779	
292.0	0.213147	0.217501	0.231442	0.257665	0.300716	0.366729	0.462673	0.595258	
293.0	0.208955	0.213251	0.227034	0.25305	0.295943	0.361991	0.458311	0.591711	
294.0	0.204754	0.208991	0.222612	0.248415	0.291144	0.357223	0.453922	0.588141	
295.0	0.200545	0.204721	0.218177	0.243761	0.286321	0.352429	0.44951	0.584554	
296.0	0.19482	0.198909	0.212122	0.237384	0.279679	0.345787	0.443347	0.579496	
297.0	0.188687	0.192678	0.205622	0.23052	0.272511	0.338598	0.436659	0.57399	
298.0	0.182528	0.186418	0.199082	0.223601	0.26527	0.331322	0.42988	0.568401	
299.0	0.176046	0.179831	0.192203	0.216331	0.257676	0.323717	0.422822	0.562597	
300.0	0.168254	0.171922	0.183981	0.207713	0.248788	0.314953	0.414816	0.556097	
301.0	0.160339	0.163886	0.175618	0.198936	0.239721	0.305998	0.406624	0.54943	
302.0	0.152319	0.155741	0.167134	0.190018	0.230491	0.296866	0.39825	0.542592	
303.0	0.143991	0.147303	0.15841	0.18097	0.221307	0.287999	0.39033	0.536264	
304.0	0.135362	0.138576	0.149438	0.171759	0.212094	0.279267	0.382682	0.530246	
305.0	0.12659	0.129705	0.140319	0.162396	0.202728	0.27038	0.37487	0.524057	
306.0	0.117703	0.120716	0.131078	0.152901	0.193214	0.261323	0.36686	0.517649	
307.0	0.108972	0.111937	0.122215	0.144092	0.184815	0.253834	0.36071	0.513041	
308.0	0.100214	0.103143	0.113376	0.135371	0.176587	0.246588	0.354822	0.508651	
309.0	0.091442	0.09434	0.104546	0.126686	0.168424	0.239417	0.348985	0.504264	
310.0	0.082698	0.085571	0.095763	0.118074	0.160357	0.232347	0.34322	0.4999	
311.0	0.071858	0.074783	0.085236	0.108264	0.151935	0.225911	0.338901	0.497297	
312.0	0.06415	0.067233	0.078253	0.102462	0.148032	0.224361	0.339471	0.499006	
313.0	0.059837	0.063198	0.075129	0.101025	0.149018	0.228033	0.345182	0.505173	
314.0	0.056626	0.060371	0.073534	0.101623	0.152629	0.234809	0.354136	0.514215	
315.0	0.057102	0.061643	0.077273	0.109527	0.165875	0.253165	0.375339	0.534217	
316.0	0.061585	0.067037	0.08541	0.122064	0.183669	0.275466	0.399427	0.555887	
317.0	0.069221	0.075584	0.096633	0.137367	0.203492	0.298678	0.423232	0.576461	
318.0	0.081124	0.088562	0.112689	0.157915	0.228664	0.326801	0.450979	0.599696	
319.0	0.106682	0.115718	0.144272	0.195505	0.271678	0.372134	0.493634	0.634104	
320.0	0.133612	0.143887	0.175729	0.231032	0.310194	0.410734	0.528351	0.661005	
321.0	0.157662	0.168746	0.20264	0.260209	0.340513	0.439925	0.553648	0.679938	
322.0	0.184533	0.196297	0.231841	0.291007	0.371608	0.469056	0.578263	0.697937	
323.0	0.220593	0.232997	0.269994	0.330246	0.410206	0.504344	0.607445	0.718889	
324.0	0.256238	0.268991	0.306657	0.366948	0.445286	0.53553	0.632556	0.73647	
325.0	0.284806	0.297658	0.33537	0.39505	0.471484	0.558226	0.650347	0.74858	
326.0	0.314397	0.327232	0.364679	0.423319	0.497424	0.580355	0.66745	0.760082	
327.0	0.349155	0.361859	0.398693	0.455728	0.526779	0.605123	0.686465	0.772849	
328.0	0.386325	0.398786	0.434686	0.489641	0.557127	0.630466	0.705795	0.785807	
329.0	0.423572	0.435712	0.470461	0.52305	0.586746	0.655014	0.724447	0.798326	
330.0	0.460456	0.472223	0.505678	0.555737	0.615552	0.678805	0.742541	0.810551	
331.0	0.497843	0.509171	0.541168	0.588517	0.644355	0.702638	0.760833	0.82312	
332.0	0.535379	0.546197	0.57658	0.6211	0.672987	0.726492	0.779429	0.836204	
333.0	0.561333	0.571742	0.600884	0.643359	0.692531	0.742859	0.792354	0.845497	
334.0	0.579629	0.58971	0.617893	0.658867	0.706144	0.754332	0.801548	0.852268	
335.0	0.59672	0.606476	0.633724	0.673275	0.718802	0.765056	0.810226	0.858743	
336.0	0.612844	0.622274	0.6486	0.686775	0.730653	0.775122	0.818423	0.864916	
337.0	0.627869	0.636976	0.662395	0.699244	0.741567	0.78439	0.825995	0.870651	
338.0	0.641839	0.650625	0.675153	0.710717	0.75156	0.792848	0.832899	0.875891	
339.0	0.654823	0.663294	0.686945	0.721256	0.760679	0.800517	0.839127	0.880608	
340.0	0.666514	0.674678	0.697487	0.730605	0.768689	0.807186	0.844495	0.884654	
341.0	0.67653	0.684409	0.706434	0.738451	0.775318	0.812619	0.8488	0.887874	
342.0	0.685857	0.693456	0.714713	0.745648	0.781318	0.817446	0.852538	0.890614	
343.0	0.694559	0.701884	0.722387	0.75226	0.786749	0.821716	0.855745	0.892899	
344.0	0.702693	0.709751	0.729516	0.758344	0.791665	0.825479	0.858462	0.894759	
345.0	0.709916	0.716723	0.735799	0.763644	0.795853	0.82856	0.860549	0.896091	
346.0	0.71646	0.723031	0.741451	0.768356	0.799492	0.83112	0.862147	0.897011	
347.0	0.722642	0.728983	0.746762	0.77274	0.802812	0.833361	0.863431	0.897658	
348.0	0.728496	0.734612	0.751764	0.776832	0.805847	0.83532	0.864439	0.898068	
349.0	0.734056	0.739953	0.756493	0.780669	0.80864	0.837039	0.865217	0.898285	
350.0	0.739354	0.745038	0.760982	0.784284	0.811225	0.83856	0.865808	0.898351	
351.0	0.744414	0.749892	0.765258	0.787706	0.813635	0.839918	0.866252	0.898305	
352.0	0.74926	0.754539	0.769343	0.790959	0.815896	0.841144	0.866585	0.898182	
353.0	0.75391	0.758996	0.773257	0.794065	0.818032	0.842264	0.866837	0.898013	
354.0	0.758383	0.763283	0.777018	0.797042	0.820064	0.843305	0.867038	0.897824	
355.0	0.76251	0.767237	0.780482	0.799769	0.821898	0.844199	0.867145	0.897593	
356.0	0.766463	0.771024	0.783799	0.802378	0.823645	0.845039	0.867236	0.897376	
357.0	0.770298	0.7747	0.787021	0.804914	0.825345	0.845861	0.86734	0.897198	
358.0	0.774024	0.778272	0.790154	0.807385	0.827006	0.846674	0.867467	0.897064	
359.0	0.777645	0.781744	0.793203	0.809794	0.828633	0.847483	0.867622	0.896977	
360.0	0.781164	0.78512	0.79617	0.812143	0.830227	0.848288	0.867805	0.896935	
361.0	0.784586	0.788404	0.79906	0.814436	0.83179	0.849093	0.868015	0.896937	
362.0	0.787916	0.791601	0.801878	0.816677	0.833327	0.8499	0.868255	0.896981	
363.0	0.79116	0.794716	0.804626	0.81887	0.83484	0.85071	0.868526	0.897066	
364.0	0.794323	0.797755	0.807312	0.821019	0.836334	0.851529	0.868828	0.89719	
365.0	0.796244	0.799583	0.808873	0.822176	0.837003	0.851711	0.868689	0.897032	
366.0	0.795446	0.798754	0.807958	0.821135	0.835822	0.850441	0.867506	0.896181	
367.0	0.794693	0.797972	0.807093	0.820148	0.834704	0.849244	0.866399	0.895388	
368.0	0.793988	0.797238	0.80628	0.819219	0.833651	0.848122	0.865368	0.894653	
369.0	0.793335	0.796557	0.805522	0.81835	0.832666	0.847076	0.864416	0.893977	
370.0	0.792741	0.795937	0.804828	0.817552	0.83176	0.846117	0.863548	0.893363	
371.0	0.792213	0.795384	0.804205	0.81683	0.830939	0.845252	0.862769	0.892814	
372.0	0.791754	0.794901	0.803655	0.816188	0.830207	0.844481	0.862081	0.892329	
373.0	0.791367	0.794491	0.803183	0.81563	0.829567	0.84381	0.861484	0.891907	
374.0	0.791053	0.794155	0.802789	0.815157	0.82902	0.843235	0.860974	0.891545	
375.0	0.790814	0.793896	0.802475	0.81477	0.828566	0.842757	0.860551	0.891238	
376.0	0.791404	0.794452	0.802934	0.81509	0.828735	0.842799	0.860525	0.8912	
377.0	0.793788	0.796766	0.805051	0.816912	0.830205	0.843901	0.861293	0.891704	
378.0	0.796187	0.799097	0.807193	0.818771	0.831723	0.845058	0.862109	0.892232	
379.0	0.798599	0.801445	0.809359	0.820665	0.833288	0.846267	0.862964	0.892774	
380.0	0.801024	0.803809	0.811547	0.822591	0.834895	0.847518	0.863847	0.893321	
381.0	0.803454	0.806179	0.813749	0.82454	0.83653	0.848797	0.864742	0.893858	
382.0	0.805881	0.808549	0.815954	0.826499	0.838182	0.85009	0.865635	0.894376	
383.0	0.808299	0.81091	0.818157	0.828462	0.839841	0.851385	0.866515	0.894864	
384.0	0.8107	0.813257	0.82035	0.83042	0.841499	0.852676	0.867374	0.895318	
385.0	0.813082	0.815586	0.822529	0.832368	0.843149	0.853954	0.868206	0.895733	
386.0	0.81544	0.817893	0.824688	0.834301	0.844787	0.855214	0.869006	0.896104	
387.0	0.81777	0.820173	0.826825	0.836216	0.846407	0.856451	0.869769	0.89643	
388.0	0.82042	0.822766	0.829256	0.838395	0.84825	0.857855	0.870631	0.896794	
389.0	0.823373	0.825657	0.831968	0.840825	0.850303	0.859415	0.871582	0.89719	
390.0	0.826278	0.828501	0.834635	0.843216	0.85232	0.860938	0.872486	0.897533	
391.0	0.829134	0.831297	0.837259	0.845568	0.854302	0.862425	0.873346	0.897824	
392.0	0.831943	0.834048	0.839842	0.847885	0.856254	0.863882	0.874169	0.898072	
393.0	0.834717	0.836765	0.842396	0.85018	0.858192	0.865331	0.874978	0.898294	
394.0	0.837473	0.839467	0.844939	0.852472	0.860137	0.866792	0.875791	0.898499	
395.0	0.840225	0.842165	0.847485	0.854777	0.862106	0.868284	0.876623	0.898696	
396.0	0.842984	0.844874	0.850048	0.857109	0.864114	0.86982	0.877484	0.898884	
397.0	0.845761	0.847603	0.852638	0.859478	0.866172	0.871412	0.878381	0.899065	
398.0	0.848567	0.850363	0.855266	0.861897	0.868292	0.87307	0.87932	0.899235	
399.0	0.85141	0.853163	0.857942	0.864376	0.870485	0.874807	0.880306	0.899389	
400.0	0.8543	0.856013	0.860675	0.866924	0.872762	0.876629	0.881341	0.899518	
401.0	0.856671	0.858358	0.862948	0.869083	0.874735	0.878228	0.882197	0.899483	
402.0	0.859112	0.860776	0.865302	0.871335	0.876815	0.87993	0.883099	0.899393	
403.0	0.86163	0.863275	0.867745	0.873689	0.879009	0.881741	0.884042	0.899222	
404.0	0.864239	0.865866	0.870289	0.876157	0.88133	0.883669	0.885019	0.898937	
405.0	0.86695	0.868563	0.872947	0.878751	0.883787	0.885718	0.886012	0.898486	
406.0	0.86976	0.871361	0.875713	0.881464	0.886369	0.887861	0.886967	0.897783	
407.0	0.872656	0.874248	0.878576	0.884281	0.889057	0.890074	0.887836	0.896745	
408.0	0.875639	0.877223	0.881531	0.887199	0.891844	0.892341	0.888575	0.895284	
409.0	0.87871	0.880288	0.884582	0.890218	0.894728	0.894651	0.889136	0.893291	
410.0	0.881881	0.883456	0.88774	0.893347	0.897716	0.896997	0.889468	0.890636	
411.0	0.885171	0.886744	0.891022	0.896602	0.900815	0.89937	0.889499	0.887147	
412.0	0.888609	0.890181	0.894453	0.900003	0.904035	0.901758	0.889134	0.882607	
413.0	0.892228	0.893798	0.898059	0.903566	0.90738	0.90413	0.888236	0.876736	
414.0	0.896421	0.897976	0.902194	0.907595	0.911089	0.906645	0.886786	0.869239	
415.0	0.900992	0.902522	0.906658	0.911885	0.914948	0.909064	0.884404	0.859624	
416.0	0.905741	0.907228	0.911228	0.916192	0.918693	0.91109	0.880608	0.847368	
417.0	0.910484	0.911899	0.915681	0.920262	0.922056	0.912423	0.874861	0.832048	
418.0	0.914818	0.916127	0.919603	0.923698	0.924684	0.912724	0.866541	0.813547	
419.0	0.918159	0.919344	0.922482	0.926093	0.926289	0.911726	0.855038	0.792453	
420.0	0.920072	0.921157	0.924044	0.927319	0.926851	0.909373	0.839862	0.770267	
421.0	0.920536	0.921585	0.924395	0.927557	0.92655	0.905694	0.820511	0.749327	
422.0	0.919957	0.921038	0.923938	0.927157	0.925631	0.900698	0.796492	0.732456	
423.0	0.918909	0.92006	0.923133	0.926461	0.924299	0.894315	0.767457	0.72215	
424.0	0.917845	0.91907	0.922312	0.925692	0.922664	0.886368	0.733514	0.719692	
425.0	0.917005	0.918286	0.92164	0.924957	0.920755	0.876577	0.695632	0.724698	
426.0	0.916461	0.917773	0.921164	0.924278	0.918545	0.864575	0.656058	0.735474	
427.0	0.91619	0.917508	0.920862	0.923631	0.915966	0.849896	0.618495	0.749845	
428.0	0.915993	0.917298	0.920556	0.922856	0.912836	0.832069	0.587964	0.765526	
429.0	0.915811	0.917088	0.920201	0.921911	0.909064	0.810638	0.568301	0.781015	
430.0	0.915741	0.916974	0.919889	0.920874	0.904643	0.785097	0.560954	0.795753	
431.0	0.915741	0.916917	0.919586	0.919709	0.899462	0.755061	0.5654	0.809332	
432.0	0.915777	0.916884	0.919264	0.918382	0.893393	0.720358	0.579222	0.821613	
433.0	0.915827	0.916855	0.918902	0.916864	0.886297	0.681217	0.599249	0.832612	
434.0	0.915869	0.916807	0.918477	0.915118	0.877995	0.638429	0.622565	0.84243	
435.0	0.915887	0.916725	0.917971	0.913102	0.868267	0.593621	0.646958	0.851192	
436.0	0.915867	0.916592	0.917361	0.910767	0.856845	0.549431	0.670948	0.859022	
437.0	0.915798	0.916397	0.916632	0.908063	0.84344	0.509377	0.693638	0.866027	
438.0	0.915668	0.916129	0.915762	0.904933	0.827713	0.477188	0.71459	0.872313	
439.0	0.915468	0.915773	0.914732	0.90131	0.809296	0.455987	0.73364	0.877967	
440.0	0.915186	0.91532	0.913521	0.897121	0.7878	0.447344	0.750807	0.883069	
441.0	0.914816	0.914757	0.912107	0.892286	0.762857	0.450942	0.766197	0.887685	
442.0	0.914345	0.914074	0.910465	0.886709	0.734132	0.464879	0.779968	0.891877	
443.0	0.913833	0.913322	0.908631	0.880324	0.701254	0.486563	0.792518	0.895803	
444.0	0.913462	0.912679	0.906747	0.873098	0.663441	0.514127	0.804632	0.899801	
445.0	0.912953	0.911868	0.904537	0.864698	0.621526	0.544389	0.815502	0.903468	
446.0	0.912291	0.910869	0.901956	0.85493	0.576434	0.575211	0.825276	0.906839	
447.0	0.911463	0.909665	0.898959	0.843581	0.529874	0.60515	0.83409	0.90995	
448.0	0.910453	0.908233	0.895494	0.830403	0.48442	0.633353	0.842061	0.912828	
449.0	0.909243	0.906551	0.891499	0.81511	0.443352	0.659397	0.849292	0.915497	
450.0	0.907812	0.904589	0.886901	0.797372	0.410139	0.683167	0.85588	0.917982	
451.0	0.906139	0.902317	0.881616	0.776837	0.387811	0.704689	0.861899	0.9203	
452.0	0.90419	0.899693	0.87554	0.753121	0.378171	0.724094	0.867414	0.922466	
453.0	0.901938	0.896676	0.868558	0.725853	0.38133	0.74156	0.872484	0.924496	
454.0	0.89934	0.89321	0.860526	0.694708	0.39586	0.757271	0.877157	0.926402	
455.0	0.896359	0.88924	0.851292	0.659504	0.419225	0.771418	0.881477	0.928194	
456.0	0.892943	0.884697	0.840666	0.620283	0.448552	0.784172	0.88548	0.929883	
457.0	0.889039	0.879503	0.828439	0.577479	0.481139	0.795695	0.889199	0.931476	
458.0	0.884575	0.873561	0.814353	0.532039	0.514828	0.806131	0.892662	0.932982	
459.0	0.879485	0.866773	0.798144	0.485635	0.54803	0.815608	0.895896	0.934408	
460.0	0.873684	0.859023	0.779545	0.440802	0.579568	0.824184	0.8989	0.935749	
461.0	0.867075	0.850173	0.758218	0.400376	0.609015	0.832005	0.901712	0.937019	
462.0	0.859533	0.840043	0.733788	0.367458	0.636176	0.839171	0.904354	0.938227	
463.0	0.850928	0.828454	0.705943	0.344843	0.660981	0.845751	0.906841	0.939377	
464.0	0.841103	0.815182	0.67439	0.334284	0.683518	0.851814	0.909187	0.940471	
465.0	0.829868	0.799972	0.638968	0.336187	0.703917	0.85741	0.911403	0.941515	
466.0	0.817022	0.782552	0.599737	0.349482	0.722355	0.862591	0.913499	0.942511	
467.0	0.802327	0.762613	0.557088	0.372057	0.739017	0.867398	0.915485	0.943462	
468.0	0.78551	0.739823	0.511879	0.401296	0.754086	0.871869	0.917369	0.944372	
469.0	0.766275	0.71385	0.465596	0.434588	0.767729	0.876037	0.919159	0.945241	
470.0	0.744292	0.684377	0.420373	0.469701	0.780107	0.879931	0.920863	0.946073	
471.0	0.719235	0.651171	0.378961	0.504903	0.791357	0.883576	0.922485	0.94687	
472.0	0.690782	0.614136	0.344386	0.539002	0.801606	0.886995	0.924032	0.947634	
473.0	0.65867	0.57342	0.31947	0.57125	0.810963	0.890206	0.925508	0.948365	
474.0	0.622737	0.529527	0.306232	0.60126	0.819529	0.89323	0.926919	0.949067	
475.0	0.583057	0.483506	0.305456	0.628858	0.827388	0.89608	0.928268	0.94974	
476.0	0.539997	0.436992	0.316519	0.654058	0.834617	0.898771	0.929559	0.950385	
477.0	0.494427	0.392357	0.337692	0.676901	0.841236	0.901287	0.930777	0.950992	
478.0	0.448173	0.353121	0.366686	0.697048	0.846954	0.903407	0.931767	0.951465	
479.0	0.403233	0.321742	0.400229	0.715228	0.852239	0.905413	0.932716	0.951916	
480.0	0.36223	0.30068	0.436007	0.731642	0.857136	0.907316	0.933626	0.952348	
481.0	0.328029	0.291461	0.472188	0.746478	0.861684	0.909122	0.934498	0.952761	
482.0	0.303262	0.294331	0.507467	0.759907	0.865917	0.910839	0.935335	0.953156	
483.0	0.289802	0.308266	0.541004	0.772084	0.869864	0.912473	0.93614	0.953533	
484.0	0.288362	0.331289	0.572331	0.783153	0.873553	0.914031	0.936913	0.953893	
485.0	0.298382	0.360946	0.601238	0.793235	0.877007	0.915517	0.937656	0.954237	
486.0	0.318221	0.394755	0.627686	0.802439	0.880246	0.916936	0.938372	0.954566	
487.0	0.345595	0.430562	0.651765	0.810865	0.883291	0.918294	0.939062	0.954879	
488.0	0.378029	0.466657	0.673612	0.818594	0.886158	0.919594	0.939726	0.955178	
489.0	0.413243	0.501819	0.693402	0.825701	0.88886	0.92084	0.940367	0.955463	
490.0	0.449375	0.53527	0.711322	0.832254	0.891413	0.922035	0.940986	0.955734	
491.0	0.485032	0.566557	0.727556	0.838308	0.893829	0.923184	0.941584	0.955992	
492.0	0.519267	0.595475	0.742276	0.843915	0.896118	0.924288	0.942162	0.956238	
493.0	0.551507	0.621991	0.755643	0.849118	0.89829	0.925351	0.942722	0.956472	
494.0	0.581458	0.646176	0.767802	0.853957	0.900355	0.926376	0.943264	0.956695	
495.0	0.609018	0.668163	0.778883	0.858468	0.902319	0.927364	0.94379	0.956907	
496.0	0.634413	0.688272	0.789088	0.862718	0.90421	0.928329	0.944308	0.957113	
497.0	0.659054	0.707729	0.799092	0.867004	0.906168	0.92935	0.944868	0.957348	
498.0	0.681298	0.725266	0.808214	0.871002	0.908031	0.930335	0.945412	0.957572	
499.0	0.701357	0.741089	0.816553	0.874739	0.909807	0.931286	0.945942	0.957787	
500.0	0.719445	0.755388	0.824197	0.878241	0.911503	0.932207	0.946458	0.957993	
501.0	0.735765	0.768331	0.831218	0.881527	0.913125	0.9331	0.946963	0.958192	
502.0	0.750515	0.780075	0.837687	0.884617	0.914678	0.933967	0.947458	0.958385	
503.0	0.763869	0.790757	0.843661	0.887531	0.916169	0.934812	0.947945	0.958573	
504.0	0.775978	0.80049	0.84919	0.89028	0.917602	0.935635	0.948426	0.95876	
505.0	0.786987	0.809386	0.854319	0.892882	0.918981	0.93644	0.948905	0.958947	
506.0	0.797018	0.817534	0.859089	0.895347	0.920311	0.937229	0.949381	0.959138	
507.0	0.806182	0.825018	0.863536	0.897689	0.921598	0.938005	0.949861	0.959336	
508.0	0.814573	0.831907	0.867689	0.899916	0.922843	0.938771	0.950345	0.959546	
509.0	0.822278	0.838267	0.871579	0.90204	0.924052	0.93953	0.950839	0.959773	
510.0	0.829367	0.84415	0.875228	0.904068	0.925229	0.940284	0.951347	0.960024	
511.0	0.835909	0.849607	0.87866	0.90601	0.926377	0.941039	0.951875	0.960308	
512.0	0.84196	0.854681	0.881895	0.907872	0.927501	0.941797	0.952428	0.960635	
513.0	0.84757	0.85941	0.884949	0.909663	0.928603	0.942563	0.953015	0.961017	
514.0	0.852786	0.863827	0.887842	0.911388	0.92969	0.943342	0.953644	0.961472	
515.0	0.857645	0.867964	0.890586	0.913056	0.930765	0.94414	0.954327	0.962019	
516.0	0.862184	0.871847	0.893195	0.914671	0.931833	0.944965	0.955077	0.962684	
517.0	0.866374	0.875449	0.895649	0.91622	0.932886	0.945815	0.955902	0.963487	
518.0	0.870227	0.878778	0.897949	0.917704	0.933927	0.946694	0.956815	0.964456	
519.0	0.873863	0.881935	0.900158	0.919158	0.934978	0.947627	0.95785	0.965649	
520.0	0.877302	0.884935	0.902285	0.920588	0.936047	0.948625	0.959035	0.967119	
521.0	0.880564	0.887793	0.90434	0.922	0.937141	0.949704	0.960403	0.968929	
522.0	0.883664	0.890523	0.90633	0.923401	0.938268	0.950882	0.961995	0.97115	
523.0	0.886618	0.893138	0.908264	0.924796	0.939438	0.952178	0.963859	0.973862	
524.0	0.889442	0.895649	0.910149	0.926194	0.940662	0.95362	0.966051	0.977143	
525.0	0.892148	0.898069	0.911995	0.927602	0.941954	0.955237	0.968638	0.98106	
526.0	0.89475	0.900409	0.913809	0.929028	0.943329	0.957067	0.971695	0.985654	
527.0	0.89726	0.902678	0.9156	0.930483	0.944807	0.959153	0.975301	0.990911	
528.0	0.899689	0.904887	0.917376	0.931977	0.946409	0.961549	0.979535	0.996737	
529.0	0.902049	0.907047	0.919147	0.933525	0.948162	0.964315	0.984463	1.002937	
530.0	0.904351	0.909168	0.920924	0.935139	0.950097	0.967524	0.990119	1.009208	
531.0	0.906607	0.911261	0.922717	0.936838	0.952254	0.971254	0.99648	1.015174	
532.0	0.908828	0.913337	0.924539	0.938642	0.954676	0.975591	1.003427	1.020442	
533.0	0.911026	0.915408	0.926405	0.940575	0.957418	0.980617	1.010725	1.024687	
534.0	0.913213	0.917487	0.928329	0.942666	0.960544	0.986399	1.018008	1.027714	
535.0	0.915405	0.919589	0.930332	0.944949	0.964129	0.992967	1.024811	1.02949	
536.0	0.917614	0.92173	0.932433	0.947464	0.968254	1.000279	1.030639	1.030115	
537.0	0.919859	0.923926	0.934659	0.95026	0.973011	1.008189	1.035076	1.029786	
538.0	0.922157	0.926199	0.937038	0.953394	0.97849	1.016406	1.037879	1.028731	
539.0	0.92453	0.928572	0.939607	0.956934	0.984772	1.024484	1.039022	1.027174	
540.0	0.927278	0.931339	0.94265	0.961192	0.992189	1.032203	1.038823	1.025346	
541.0	0.930177	0.934291	0.946002	0.96607	1.000523	1.038617	1.037362	1.023333	
542.0	0.93323	0.937439	0.9497	0.971653	1.009621	1.043138	1.034974	1.021248	
543.0	0.93648	0.94083	0.953819	0.978052	1.019177	1.045461	1.032002	1.019176	
544.0	0.939977	0.944524	0.95845	0.985373	1.028679	1.045608	1.028728	1.017169	
545.0	0.94378	0.94859	0.963696	0.993681	1.037405	1.04388	1.025368	1.015262	
546.0	0.94796	0.953111	0.969673	1.002962	1.044543	1.040743	1.022066	1.013471	
547.0	0.952602	0.958185	0.976506	1.013071	1.049379	1.036697	1.018914	1.011803	
548.0	0.957806	0.963924	0.984308	1.023642	1.051507	1.032186	1.015963	1.010259	
549.0	0.963685	0.970451	0.993162	1.03405	1.050947	1.027548	1.013238	1.008835	
550.0	0.970368	0.977898	1.00307	1.043426	1.048103	1.023016	1.010743	1.007526	
551.0	0.977984	0.98638	1.01389	1.050792	1.043606	1.018733	1.008472	1.006324	
552.0	0.986652	0.995966	1.025245	1.05531	1.038123	1.014772	1.006414	1.005221	
553.0	0.996439	1.006626	1.03646	1.056565	1.032224	1.011165	1.004552	1.00421	
554.0	1.007308	1.018148	1.046566	1.05469	1.026328	1.007911	1.002871	1.003282	
555.0	1.019032	1.030049	1.054437	1.050284	1.020706	1.004994	1.001352	1.002431	
556.0	1.031099	1.041501	1.059092	1.044182	1.015507	1.00239	0.999982	1.001649	
557.0	1.042645	1.051379	1.060032	1.037206	1.010797	1.00007	0.998744	1.000931	
558.0	1.052502	1.058467	1.057419	1.030016	1.006584	0.998006	0.997625	1.000271	
559.0	1.059423	1.061826	1.051984	1.023063	1.00285	0.99617	0.996613	0.999664	
560.0	1.062476	1.061149	1.044727	1.016607	0.999556	0.994536	0.995697	0.999105	
561.0	1.061395	1.056867	1.036619	1.010772	0.996661	0.993082	0.994867	0.998589	
562.0	1.05668	1.04995	1.028417	1.005587	0.994119	0.991786	0.994114	0.998114	
563.0	1.04936	1.041531	1.020612	1.001032	0.991888	0.990631	0.993431	0.997675	
564.0	1.040473	1.032487	1.013389	0.996998	0.989887	0.989564	0.992783	0.997251	
565.0	1.031018	1.023522	1.006842	0.993409	0.988062	0.988558	0.992153	0.996829	
566.0	1.021925	1.015253	1.001111	0.99029	0.986451	0.987652	0.991575	0.996437	
567.0	1.013587	1.007861	0.99614	0.98758	0.985026	0.986835	0.991046	0.996072	
568.0	1.006168	1.001384	0.991848	0.985222	0.983763	0.986096	0.990559	0.995732	
569.0	0.999688	0.995773	0.98815	0.983167	0.982642	0.985428	0.990111	0.995415	
570.0	0.994095	0.99095	0.984967	0.981373	0.981644	0.984823	0.989699	0.995118	
571.0	0.9893	0.986817	0.982225	0.979804	0.980755	0.984275	0.989319	0.994841	
572.0	0.985198	0.983278	0.979859	0.978429	0.979961	0.983776	0.988968	0.994582	
573.0	0.981697	0.980251	0.977815	0.977222	0.979252	0.983324	0.988645	0.994339	
574.0	0.978707	0.977657	0.976046	0.97616	0.978618	0.982912	0.988346	0.994112	
575.0	0.97615	0.975431	0.974511	0.975225	0.97805	0.982537	0.98807	0.993899	
576.0	0.973961	0.973518	0.973178	0.9744	0.97754	0.982195	0.987814	0.993699	
577.0	0.972084	0.971871	0.972018	0.973671	0.977083	0.981884	0.987577	0.993512	
578.0	0.970471	0.970451	0.971007	0.973027	0.976673	0.9816	0.987358	0.993335	
579.0	0.969083	0.969225	0.970126	0.972458	0.976305	0.981342	0.987155	0.99317	
580.0	0.967888	0.968165	0.969356	0.971955	0.975975	0.981106	0.986968	0.993015	
581.0	0.966857	0.967247	0.968683	0.971509	0.975678	0.980891	0.986794	0.992868	
582.0	0.965968	0.966453	0.968096	0.971115	0.975412	0.980695	0.986632	0.992731	
583.0	0.965199	0.965764	0.967582	0.970767	0.975174	0.980517	0.986483	0.992602	
584.0	0.964537	0.965168	0.967135	0.970459	0.974961	0.980354	0.986344	0.99248	
585.0	0.963965	0.964653	0.966744	0.970188	0.97477	0.980207	0.986216	0.992365	
586.0	0.963472	0.964208	0.966404	0.96995	0.9746	0.980072	0.986097	0.992257	
587.0	0.963049	0.963824	0.966109	0.969741	0.974448	0.979951	0.985987	0.992155	
588.0	0.962686	0.963495	0.965854	0.969558	0.974314	0.97984	0.985885	0.99206	
589.0	0.962376	0.963213	0.965635	0.969399	0.974195	0.979741	0.985791	0.99197	
590.0	0.962112	0.962972	0.965447	0.969261	0.97409	0.979651	0.985704	0.991885	
591.0	0.961831	0.962711	0.965231	0.969092	0.973954	0.979533	0.985595	0.991785	
592.0	0.961546	0.962444	0.965004	0.968908	0.973802	0.979401	0.985475	0.991678	
593.0	0.961295	0.962207	0.964802	0.968741	0.973661	0.979277	0.98536	0.991575	
594.0	0.961073	0.961997	0.964619	0.968588	0.973531	0.97916	0.985252	0.991477	
595.0	0.960877	0.961811	0.964457	0.96845	0.973411	0.979051	0.98515	0.991383	
596.0	0.960705	0.961647	0.964311	0.968324	0.9733	0.978949	0.985052	0.991293	
597.0	0.960554	0.961502	0.964181	0.96821	0.973198	0.978854	0.98496	0.991207	
598.0	0.960422	0.961375	0.964065	0.968106	0.973103	0.978764	0.984873	0.991125	
599.0	0.960307	0.961263	0.963963	0.968013	0.973016	0.97868	0.98479	0.991046	
600.0	0.960207	0.961166	0.963872	0.967928	0.972936	0.978601	0.984711	0.990971	
601.0	0.960121	0.961082	0.963792	0.967852	0.972862	0.978527	0.984636	0.990898	
602.0	0.960048	0.96101	0.963721	0.967783	0.972794	0.978458	0.984565	0.990829	
603.0	0.959986	0.960948	0.96366	0.967722	0.972731	0.978394	0.984498	0.990763	
604.0	0.959935	0.960896	0.963606	0.967667	0.972674	0.978333	0.984434	0.990699	
605.0	0.959893	0.960853	0.963561	0.967618	0.972621	0.978276	0.984373	0.990638	
606.0	0.959859	0.960818	0.963522	0.967574	0.972573	0.978223	0.984315	0.99058	
607.0	0.959833	0.96079	0.96349	0.967536	0.972529	0.978174	0.984261	0.990523	
608.0	0.959814	0.960769	0.963463	0.967503	0.972489	0.978127	0.984209	0.99047	
609.0	0.959802	0.960754	0.963442	0.967474	0.972453	0.978084	0.984159	0.990418	
610.0	0.959795	0.960745	0.963425	0.96745	0.97242	0.978044	0.984112	0.990368	
611.0	0.959794	0.96074	0.963414	0.967429	0.972391	0.978006	0.984068	0.99032	
612.0	0.959798	0.960741	0.963406	0.967412	0.972364	0.977971	0.984026	0.990275	
613.0	0.959806	0.960746	0.963403	0.967398	0.972341	0.977939	0.983985	0.990231	
614.0	0.959818	0.960754	0.963403	0.967387	0.97232	0.977909	0.983947	0.990188	
615.0	0.959834	0.960767	0.963406	0.967379	0.972301	0.977881	0.983911	0.990148	
616.0	0.959853	0.960782	0.963412	0.967374	0.972285	0.977855	0.983877	0.990109	
617.0	0.959876	0.960801	0.963422	0.967372	0.972272	0.977831	0.983845	0.990071	
618.0	0.959901	0.960823	0.963433	0.967372	0.97226	0.977809	0.983814	0.990035	
619.0	0.959929	0.960847	0.963448	0.967374	0.97225	0.977789	0.983785	0.990001	
620.0	0.959964	0.960878	0.963468	0.967382	0.972245	0.977773	0.983759	0.989968	
621.0	0.960043	0.960951	0.963527	0.967422	0.972267	0.977776	0.983746	0.989944	
622.0	0.960123	0.961025	0.963587	0.967464	0.97229	0.977782	0.983735	0.98992	
623.0	0.960204	0.961102	0.963649	0.967508	0.972315	0.977789	0.983726	0.989898	
624.0	0.960287	0.961179	0.963713	0.967553	0.972341	0.977797	0.983718	0.989877	
625.0	0.960372	0.961258	0.963778	0.967599	0.972369	0.977807	0.983711	0.989857	
626.0	0.960457	0.961338	0.963844	0.967647	0.972398	0.977818	0.983706	0.989839	
627.0	0.960543	0.961419	0.963911	0.967696	0.972428	0.97783	0.983701	0.989822	
628.0	0.96063	0.961501	0.963978	0.967746	0.972459	0.977843	0.983698	0.989806	
629.0	0.960718	0.961583	0.964047	0.967797	0.972491	0.977857	0.983696	0.989791	
630.0	0.960806	0.961666	0.964117	0.967849	0.972524	0.977873	0.983696	0.989777	
631.0	0.960895	0.96175	0.964187	0.967901	0.972558	0.977889	0.983696	0.989763	
632.0	0.960984	0.961834	0.964258	0.967954	0.972593	0.977906	0.983697	0.989751	
633.0	0.961073	0.961918	0.964329	0.968008	0.972628	0.977924	0.983698	0.98974	
634.0	0.961163	0.962003	0.9644	0.968062	0.972665	0.977943	0.983701	0.989729	
635.0	0.961253	0.962088	0.964472	0.968117	0.972701	0.977963	0.983705	0.98972	
636.0	0.961343	0.962173	0.964544	0.968172	0.972739	0.977983	0.983709	0.989711	
637.0	0.961432	0.962258	0.964617	0.968228	0.972777	0.978004	0.983714	0.989703	
638.0	0.961522	0.962343	0.96469	0.968284	0.972815	0.978025	0.98372	0.989695	
639.0	0.961612	0.962428	0.964762	0.968341	0.972854	0.978048	0.983726	0.989688	
640.0	0.961702	0.962513	0.964835	0.968397	0.972894	0.97807	0.983733	0.989682	
641.0	0.961792	0.962598	0.964908	0.968454	0.972934	0.978093	0.983741	0.989677	
642.0	0.961881	0.962683	0.964981	0.968511	0.972974	0.978117	0.983749	0.989672	
643.0	0.96197	0.962768	0.965054	0.968569	0.973014	0.978141	0.983758	0.989668	
644.0	0.962059	0.962853	0.965127	0.968626	0.973055	0.978166	0.983767	0.989664	
645.0	0.962148	0.962937	0.9652	0.968684	0.973096	0.978191	0.983777	0.989661	
646.0	0.962236	0.963021	0.965273	0.968741	0.973137	0.978216	0.983787	0.989658	
647.0	0.962324	0.963105	0.965346	0.968799	0.973179	0.978242	0.983798	0.989656	
648.0	0.962412	0.963189	0.965419	0.968857	0.973221	0.978268	0.983809	0.989654	
649.0	0.962499	0.963272	0.965491	0.968915	0.973263	0.978294	0.983821	0.989653	
650.0	0.962586	0.963355	0.965563	0.968972	0.973305	0.978321	0.983833	0.989652	
651.0	0.962673	0.963437	0.965635	0.96903	0.973347	0.978347	0.983845	0.989651	
652.0	0.962759	0.96352	0.965707	0.969088	0.973389	0.978374	0.983858	0.989651	
653.0	0.962876	0.963632	0.965808	0.969172	0.973454	0.97842	0.983885	0.989661	
654.0	0.963039	0.96379	0.965951	0.969294	0.973553	0.978494	0.983934	0.989686	
655.0	0.9632	0.963946	0.966093	0.969415	0.973651	0.978568	0.983982	0.98971	
656.0	0.96336	0.964101	0.966233	0.969536	0.973748	0.978641	0.98403	0.989735	
657.0	0.963519	0.964254	0.966373	0.969656	0.973845	0.978714	0.984079	0.98976	
658.0	0.963676	0.964406	0.966511	0.969775	0.973942	0.978786	0.984127	0.989785	
659.0	0.963831	0.964557	0.966649	0.969893	0.974037	0.978858	0.984175	0.98981	
660.0	0.963986	0.964707	0.966785	0.97001	0.974132	0.97893	0.984223	0.989835	
661.0	0.964139	0.964855	0.96692	0.970126	0.974227	0.979001	0.984271	0.98986	
662.0	0.96429	0.965002	0.967054	0.970242	0.974321	0.979072	0.984318	0.989885	
663.0	0.964441	0.965148	0.967187	0.970356	0.974414	0.979143	0.984366	0.98991	
664.0	0.96459	0.965292	0.967319	0.97047	0.974507	0.979213	0.984413	0.989935	
665.0	0.964738	0.965435	0.96745	0.970583	0.974599	0.979283	0.98446	0.98996	
666.0	0.964884	0.965577	0.967579	0.970695	0.97469	0.979352	0.984508	0.989985	
667.0	0.965029	0.965718	0.967708	0.970807	0.974781	0.979421	0.984554	0.99001	
668.0	0.965173	0.965858	0.967836	0.970917	0.974871	0.97949	0.984601	0.990036	
669.0	0.965315	0.965996	0.967962	0.971026	0.974961	0.979558	0.984647	0.990061	
670.0	0.965457	0.966133	0.968088	0.971135	0.97505	0.979626	0.984694	0.990086	
671.0	0.965597	0.966269	0.968212	0.971243	0.975139	0.979694	0.98474	0.990111	
672.0	0.965736	0.966404	0.968336	0.97135	0.975226	0.979761	0.984786	0.990136	
673.0	0.965873	0.966537	0.968458	0.971456	0.975314	0.979828	0.984832	0.990161	
674.0	0.96601	0.96667	0.96858	0.971562	0.9754	0.979894	0.984877	0.990186	
675.0	0.966145	0.966801	0.9687	0.971666	0.975486	0.97996	0.984923	0.990211	
676.0	0.966279	0.966931	0.968819	0.97177	0.975572	0.980026	0.984968	0.990236	
677.0	0.966412	0.96706	0.968938	0.971873	0.975656	0.980091	0.985012	0.990261	
678.0	0.966543	0.967188	0.969055	0.971976	0.975741	0.980156	0.985057	0.990286	
679.0	0.966674	0.967315	0.969172	0.972077	0.975824	0.98022	0.985102	0.990311	
680.0	0.966803	0.96744	0.969287	0.972178	0.975908	0.980284	0.985146	0.990336	
681.0	0.966931	0.967565	0.969402	0.972278	0.97599	0.980348	0.98519	0.990361	
682.0	0.967059	0.967689	0.969516	0.972377	0.976072	0.980411	0.985234	0.990385	
683.0	0.967185	0.967811	0.969628	0.972475	0.976153	0.980474	0.985278	0.99041	
684.0	0.96731	0.967933	0.96974	0.972573	0.976234	0.980536	0.985321	0.990434	
685.0	0.967433	0.968053	0.969851	0.97267	0.976314	0.980598	0.985364	0.990459	
686.0	0.967556	0.968173	0.969961	0.972766	0.976394	0.98066	0.985407	0.990483	
687.0	0.967678	0.968291	0.97007	0.972861	0.976473	0.980721	0.98545	0.990508	
688.0	0.967799	0.968408	0.970178	0.972956	0.976551	0.980782	0.985492	0.990532	
689.0	0.967909	0.968516	0.970277	0.973042	0.976622	0.980837	0.98553	0.990553	
690.0	0.967983	0.968587	0.970342	0.973097	0.976667	0.980869	0.985552	0.990563	
691.0	0.968056	0.968658	0.970406	0.973152	0.976711	0.980902	0.985572	0.990573	
692.0	0.968129	0.968728	0.97047	0.973207	0.976754	0.980934	0.985593	0.990583	
693.0	0.968201	0.968798	0.970533	0.973261	0.976798	0.980967	0.985614	0.990593	
694.0	0.968273	0.968868	0.970596	0.973315	0.976841	0.980999	0.985635	0.990603	
695.0	0.968344	0.968937	0.970659	0.973369	0.976884	0.981031	0.985656	0.990613	
696.0	0.968415	0.969005	0.970721	0.973422	0.976927	0.981063	0.985677	0.990623	
697.0	0.968485	0.969073	0.970783	0.973475	0.97697	0.981095	0.985698	0.990633	
698.0	0.968555	0.969141	0.970845	0.973528	0.977013	0.981126	0.985718	0.990643	
699.0	0.968624	0.969208	0.970906	0.97358	0.977055	0.981158	0.985739	0.990653	
700.0	0.968693	0.969274	0.970967	0.973633	0.977097	0.98119	0.98576	0.990664	
701.0	0.968761	0.969341	0.971027	0.973684	0.977139	0.981221	0.98578	0.990674	
702.0	0.968829	0.969406	0.971087	0.973736	0.977181	0.981252	0.985801	0.990684	
703.0	0.968896	0.969471	0.971147	0.973787	0.977222	0.981283	0.985822	0.990695	
704.0	0.968963	0.969536	0.971206	0.973838	0.977264	0.981314	0.985842	0.990705	
705.0	0.969029	0.969601	0.971264	0.973889	0.977305	0.981345	0.985863	0.990716	
706.0	0.969095	0.969665	0.971323	0.973939	0.977346	0.981376	0.985883	0.990726	
707.0	0.969161	0.969728	0.971381	0.973989	0.977386	0.981407	0.985904	0.990736	
708.0	0.969226	0.969791	0.971439	0.974039	0.977427	0.981437	0.985924	0.990747	
709.0	0.96929	0.969854	0.971496	0.974089	0.977467	0.981468	0.985945	0.990757	
710.0	0.969355	0.969916	0.971553	0.974138	0.977507	0.981498	0.985965	0.990768	
711.0	0.969419	0.969978	0.97161	0.974187	0.977547	0.981528	0.985985	0.990778	
712.0	0.969482	0.97004	0.971666	0.974236	0.977587	0.981558	0.986005	0.990789	
713.0	0.969545	0.970101	0.971722	0.974284	0.977627	0.981588	0.986025	0.990799	
714.0	0.969607	0.970162	0.971778	0.974332	0.977666	0.981618	0.986046	0.99081	
715.0	0.96967	0.970222	0.971833	0.97438	0.977705	0.981648	0.986066	0.990821	
716.0	0.969731	0.970282	0.971888	0.974428	0.977744	0.981678	0.986086	0.990831	
717.0	0.969793	0.970342	0.971942	0.974475	0.977783	0.981707	0.986106	0.990842	
718.0	0.969853	0.970401	0.971997	0.974522	0.977821	0.981736	0.986125	0.990852	
719.0	0.969914	0.970459	0.972051	0.974569	0.97786	0.981766	0.986145	0.990863	
720.0	0.969974	0.970518	0.972104	0.974616	0.977898	0.981795	0.986165	0.990873	
721.0	0.970034	0.970576	0.972157	0.974662	0.977936	0.981824	0.986185	0.990884	
722.0	0.970093	0.970634	0.97221	0.974708	0.977974	0.981853	0.986204	0.990894	
723.0	0.970152	0.970691	0.972263	0.974754	0.978011	0.981881	0.986224	0.990905	
724.0	0.970211	0.970748	0.972315	0.974799	0.978049	0.98191	0.986244	0.990916	
725.0	0.970269	0.970804	0.972367	0.974845	0.978086	0.981938	0.986263	0.990926	
726.0	0.970327	0.97086	0.972419	0.97489	0.978123	0.981967	0.986282	0.990937	
727.0	0.970384	0.970916	0.972471	0.974934	0.97816	0.981995	0.986302	0.990947	
728.0	0.970441	0.970972	0.972522	0.974979	0.978197	0.982023	0.986321	0.990958	
729.0	0.970498	0.971027	0.972573	0.975023	0.978233	0.982051	0.98634	0.990968	
730.0	0.970606	0.971133	0.972671	0.975111	0.978308	0.982111	0.986384	0.990995	
731.0	0.970736	0.971259	0.97279	0.975217	0.978398	0.982183	0.986437	0.991029	
732.0	0.970864	0.971385	0.972907	0.975322	0.978487	0.982255	0.98649	0.991062	
733.0	0.970991	0.971509	0.973023	0.975426	0.978576	0.982327	0.986543	0.991095	
734.0	0.971117	0.971633	0.973139	0.97553	0.978665	0.982398	0.986595	0.991128	
735.0	0.971242	0.971755	0.973253	0.975632	0.978752	0.982468	0.986647	0.991161	
736.0	0.971366	0.971876	0.973366	0.975734	0.978839	0.982538	0.986699	0.991193	
737.0	0.971489	0.971996	0.973479	0.975835	0.978925	0.982607	0.98675	0.991225	
738.0	0.971611	0.972115	0.973591	0.975935	0.97901	0.982676	0.986801	0.991257	
739.0	0.971732	0.972234	0.973701	0.976034	0.979095	0.982745	0.986851	0.991289	
740.0	0.971852	0.972351	0.973811	0.976132	0.979179	0.982812	0.986901	0.991321	
741.0	0.97197	0.972467	0.97392	0.97623	0.979263	0.982879	0.986951	0.991352	
742.0	0.972088	0.972582	0.974028	0.976327	0.979345	0.982946	0.987	0.991383	
743.0	0.972205	0.972697	0.974135	0.976423	0.979428	0.983013	0.987049	0.991414	
744.0	0.972321	0.97281	0.974242	0.976518	0.979509	0.983078	0.987098	0.991445	
745.0	0.972436	0.972923	0.974347	0.976613	0.97959	0.983144	0.987146	0.991475	
746.0	0.97255	0.973034	0.974452	0.976706	0.97967	0.983208	0.987194	0.991506	
747.0	0.972663	0.973145	0.974555	0.976799	0.97975	0.983273	0.987242	0.991536	
748.0	0.972775	0.973254	0.974658	0.976892	0.979829	0.983337	0.987289	0.991566	
749.0	0.972886	0.973363	0.97476	0.976983	0.979908	0.9834	0.987336	0.991596	
750.0	0.972996	0.973471	0.974861	0.977074	0.979985	0.983463	0.987383	0.991625	
751.0	0.973106	0.973578	0.974962	0.977165	0.980063	0.983525	0.987429	0.991655	
752.0	0.973214	0.973685	0.975062	0.977254	0.980139	0.983587	0.987475	0.991684	
753.0	0.973322	0.97379	0.97516	0.977343	0.980216	0.983649	0.987521	0.991713	
754.0	0.973429	0.973895	0.975259	0.977431	0.980291	0.98371	0.987566	0.991742	
755.0	0.973535	0.973998	0.975356	0.977519	0.980366	0.98377	0.987611	0.99177	
756.0	0.97364	0.974101	0.975452	0.977605	0.980441	0.983831	0.987656	0.991799	
757.0	0.973744	0.974203	0.975548	0.977692	0.980515	0.98389	0.9877	0.991827	
758.0	0.973848	0.974305	0.975643	0.977777	0.980588	0.98395	0.987744	0.991855	
759.0	0.97395	0.974405	0.975738	0.977862	0.980661	0.984009	0.987788	0.991883	
760.0	0.974052	0.974505	0.975831	0.977946	0.980733	0.984067	0.987831	0.991911	
761.0	0.974153	0.974604	0.975924	0.97803	0.980805	0.984125	0.987874	0.991938	
762.0	0.974253	0.974702	0.976017	0.978113	0.980876	0.984183	0.987917	0.991965	
763.0	0.974353	0.974799	0.976108	0.978195	0.980947	0.98424	0.98796	0.991993	
764.0	0.974452	0.974896	0.976199	0.978277	0.981017	0.984297	0.988002	0.99202	
765.0	0.97455	0.974992	0.976289	0.978358	0.981086	0.984354	0.988044	0.992046	
766.0	0.974647	0.975087	0.976378	0.978438	0.981156	0.98441	0.988086	0.992073	
767.0	0.974743	0.975182	0.976467	0.978518	0.981224	0.984465	0.988127	0.992099	
768.0	0.974839	0.975276	0.976555	0.978598	0.981293	0.984521	0.988169	0.992126	
769.0	0.974934	0.975369	0.976643	0.978676	0.98136	0.984576	0.98821	0.992152	
770.0	0.975028	0.975461	0.97673	0.978755	0.981428	0.98463	0.98825	0.992178	
771.0	0.975122	0.975553	0.976816	0.978832	0.981494	0.984684	0.988291	0.992204	
772.0	0.975215	0.975644	0.976901	0.978909	0.98156	0.984738	0.988331	0.99223	
773.0	0.975307	0.975734	0.976986	0.978986	0.981626	0.984792	0.98837	0.992255	
774.0	0.975399	0.975824	0.97707	0.979062	0.981692	0.984845	0.98841	0.99228	
775.0	0.975488	0.975911	0.977153	0.979136	0.981756	0.984897	0.988449	0.992305	
776.0	0.975567	0.975988	0.977225	0.979201	0.981811	0.984941	0.988482	0.992326	
777.0	0.975645	0.976065	0.977297	0.979265	0.981866	0.984985	0.988514	0.992346	
778.0	0.975722	0.97614	0.977368	0.979329	0.98192	0.985029	0.988546	0.992366	
779.0	0.975799	0.976215	0.977438	0.979392	0.981974	0.985073	0.988579	0.992386	
780.0	0.975875	0.97629	0.977508	0.979455	0.982028	0.985116	0.98861	0.992407	
781.0	0.97595	0.976364	0.977577	0.979517	0.982081	0.985159	0.988642	0.992426	
782.0	0.976025	0.976437	0.977646	0.979579	0.982134	0.985202	0.988674	0.992446	
783.0	0.9761	0.97651	0.977714	0.97964	0.982187	0.985244	0.988705	0.992466	
784.0	0.976174	0.976582	0.977782	0.979701	0.982239	0.985286	0.988736	0.992486	
785.0	0.976247	0.976654	0.977849	0.979761	0.982291	0.985328	0.988767	0.992505	
786.0	0.97632	0.976725	0.977916	0.979821	0.982342	0.985369	0.988798	0.992524	
787.0	0.976392	0.976796	0.977983	0.979881	0.982393	0.985411	0.988828	0.992544	
788.0	0.976463	0.976866	0.978048	0.97994	0.982444	0.985452	0.988859	0.992563	
789.0	0.976534	0.976936	0.978114	0.979999	0.982494	0.985492	0.988889	0.992582	
790.0	0.976605	0.977005	0.978179	0.980057	0.982544	0.985533	0.988919	0.992601	
791.0	0.976675	0.977073	0.978243	0.980115	0.982594	0.985573	0.988948	0.992619	
792.0	0.976745	0.977141	0.978307	0.980173	0.982643	0.985613	0.988978	0.992638	
793.0	0.976814	0.977209	0.97837	0.98023	0.982692	0.985652	0.989007	0.992656	
794.0	0.976882	0.977276	0.978433	0.980286	0.982741	0.985692	0.989036	0.992675	
795.0	0.97695	0.977343	0.978496	0.980343	0.982789	0.985731	0.989065	0.992693	
796.0	0.977018	0.977409	0.978558	0.980399	0.982837	0.985769	0.989094	0.992711	
797.0	0.977085	0.977475	0.97862	0.980454	0.982885	0.985808	0.989123	0.99273	
798.0	0.977151	0.97754	0.978681	0.980509	0.982932	0.985846	0.989151	0.992748	
799.0	0.977217	0.977605	0.978742	0.980564	0.982979	0.985884	0.989179	0.992766	
800.0	0.977283	0.977669	0.978802	0.980618	0.983026	0.985922	0.989208	0.992783	
801.0	0.977348	0.977733	0.978862	0.980672	0.983072	0.98596	0.989235	0.992801	
802.0	0.977413	0.977796	0.978922	0.980726	0.983118	0.985997	0.989263	0.992819	
803.0	0.977477	0.977859	0.978981	0.980779	0.983164	0.986034	0.989291	0.992836	
804.0	0.977541	0.977921	0.97904	0.980832	0.983209	0.986071	0.989318	0.992854	
805.0	0.977604	0.977983	0.979098	0.980885	0.983254	0.986108	0.989345	0.992871	
806.0	0.977667	0.978045	0.979156	0.980937	0.983299	0.986144	0.989372	0.992888	
807.0	0.977729	0.978106	0.979213	0.980989	0.983344	0.98618	0.989399	0.992905	
808.0	0.977791	0.978167	0.979271	0.98104	0.983388	0.986216	0.989426	0.992922	
809.0	0.977853	0.978227	0.979327	0.981091	0.983432	0.986252	0.989453	0.992939	
810.0	0.977914	0.978287	0.979384	0.981142	0.983476	0.986287	0.989479	0.992956	
811.0	0.977975	0.978347	0.97944	0.981193	0.983519	0.986322	0.989505	0.992973	
812.0	0.978035	0.978406	0.979495	0.981243	0.983562	0.986357	0.989531	0.992989	
813.0	0.978095	0.978464	0.97955	0.981292	0.983605	0.986392	0.989557	0.993006	
814.0	0.978155	0.978523	0.979605	0.981342	0.983648	0.986427	0.989583	0.993022	
815.0	0.978214	0.978581	0.97966	0.981391	0.98369	0.986461	0.989608	0.993039	
816.0	0.978272	0.978638	0.979714	0.98144	0.983732	0.986495	0.989634	0.993055	
817.0	0.978331	0.978695	0.979768	0.981488	0.983774	0.986529	0.989659	0.993071	
818.0	0.978389	0.978752	0.979821	0.981537	0.983815	0.986563	0.989684	0.993087	
819.0	0.978446	0.978808	0.979874	0.981585	0.983857	0.986596	0.989709	0.993103	
820.0	0.978503	0.978864	0.979927	0.981632	0.983898	0.98663	0.989734	0.993119	
821.0	0.97856	0.97892	0.979979	0.981679	0.983938	0.986663	0.989759	0.993135	
822.0	0.978616	0.978975	0.980031	0.981726	0.983979	0.986696	0.989784	0.993151	
823.0	0.978672	0.97903	0.980083	0.981773	0.984019	0.986728	0.989808	0.993166	
824.0	0.978728	0.979085	0.980134	0.981819	0.984059	0.986761	0.989832	0.993182	
825.0	0.978783	0.979139	0.980185	0.981865	0.984099	0.986793	0.989856	0.993197	
826.0	0.978838	0.979193	0.980236	0.981911	0.984138	0.986825	0.98988	0.993213	
827.0	0.978878	0.979232	0.980272	0.981944	0.984166	0.986848	0.989897	0.993223	
828.0	0.978895	0.979249	0.980288	0.981957	0.984177	0.986856	0.989902	0.993226	
829.0	0.978913	0.979265	0.980303	0.981971	0.984188	0.986865	0.989908	0.993228	
830.0	0.97893	0.979282	0.980319	0.981984	0.984199	0.986873	0.989914	0.993231	
831.0	0.978947	0.979299	0.980334	0.981998	0.98421	0.986881	0.989919	0.993234	
832.0	0.978965	0.979316	0.98035	0.982011	0.984221	0.98689	0.989925	0.993237	
833.0	0.978982	0.979333	0.980365	0.982025	0.984232	0.986898	0.989931	0.99324	
834.0	0.978999	0.979349	0.980381	0.982038	0.984243	0.986907	0.989936	0.993243	
835.0	0.979016	0.979366	0.980396	0.982052	0.984255	0.986915	0.989942	0.993246	
836.0	0.979033	0.979382	0.980411	0.982065	0.984266	0.986923	0.989948	0.993249	
837.0	0.97905	0.979399	0.980426	0.982078	0.984277	0.986932	0.989953	0.993252	
838.0	0.979067	0.979416	0.980442	0.982092	0.984288	0.98694	0.989959	0.993255	
839.0	0.979084	0.979432	0.980457	0.982105	0.984298	0.986949	0.989965	0.993258	
840.0	0.979101	0.979448	0.980472	0.982118	0.984309	0.986957	0.989971	0.993261	
841.0	0.979118	0.979465	0.980487	0.982132	0.984321	0.986966	0.989976	0.993264	
842.0	0.979135	0.979481	0.980503	0.982145	0.984332	0.986974	0.989982	0.993267	
843.0	0.979151	0.979498	0.980518	0.982158	0.984342	0.986982	0.989988	0.99327	
844.0	0.979168	0.979514	0.980533	0.982171	0.984353	0.986991	0.989994	0.993273	
845.0	0.979185	0.97953	0.980548	0.982185	0.984364	0.986999	0.99	0.993276	
846.0	0.979202	0.979547	0.980563	0.982198	0.984375	0.987008	0.990005	0.993279	
847.0	0.979218	0.979563	0.980578	0.982211	0.984386	0.987016	0.990011	0.993282	
848.0	0.979235	0.979579	0.980593	0.982224	0.984397	0.987025	0.990017	0.993286	
849.0	0.979252	0.979595	0.980608	0.982237	0.984408	0.987033	0.990023	0.993289	
850.0	0.979268	0.979612	0.980623	0.982251	0.984419	0.987041	0.990029	0.993292	
851.0	0.979285	0.979628	0.980638	0.982264	0.98443	0.98705	0.990034	0.993295	
852.0	0.979301	0.979644	0.980653	0.982277	0.984441	0.987058	0.99004	0.993298	
853.0	0.979318	0.97966	0.980668	0.98229	0.984452	0.987067	0.990046	0.993302	
854.0	0.979334	0.979676	0.980682	0.982303	0.984463	0.987075	0.990052	0.993305	
855.0	0.979351	0.979692	0.980697	0.982316	0.984473	0.987084	0.990058	0.993308	
856.0	0.979367	0.979708	0.980712	0.982329	0.984484	0.987092	0.990064	0.993311	
857.0	0.979383	0.979724	0.980727	0.982342	0.984495	0.9871	0.99007	0.993315	
858.0	0.979399	0.979739	0.980742	0.982355	0.984506	0.987109	0.990075	0.993318	
859.0	0.979416	0.979755	0.980756	0.982368	0.984517	0.987117	0.990081	0.993321	
860.0	0.979432	0.979771	0.980771	0.982381	0.984527	0.987126	0.990087	0.993324	
861.0	0.979448	0.979787	0.980786	0.982394	0.984538	0.987134	0.990093	0.993328	
862.0	0.979464	0.979803	0.9808	0.982407	0.984549	0.987143	0.990099	0.993331	
863.0	0.97948	0.979818	0.980815	0.98242	0.98456	0.987151	0.990105	0.993334	
864.0	0.979496	0.979834	0.980829	0.982432	0.984571	0.987159	0.990111	0.993338	
865.0	0.979512	0.97985	0.980844	0.982445	0.984581	0.987168	0.990117	0.993341	
866.0	0.979528	0.979865	0.980859	0.982458	0.984592	0.987176	0.990123	0.993344	
867.0	0.979544	0.979881	0.980873	0.982471	0.984603	0.987184	0.990128	0.993348	
868.0	0.97956	0.979896	0.980887	0.982484	0.984613	0.987193	0.990134	0.993351	
869.0	0.979576	0.979912	0.980902	0.982497	0.984624	0.987201	0.99014	0.993354	
870.0	0.979592	0.979928	0.980916	0.982509	0.984635	0.98721	0.990146	0.993358	
871.0	0.979608	0.979943	0.980931	0.982522	0.984646	0.987218	0.990152	0.993361	
872.0	0.979624	0.979959	0.980945	0.982535	0.984656	0.987226	0.990158	0.993364	
873.0	0.97964	0.979974	0.980959	0.982547	0.984667	0.987235	0.990164	0.993368	
874.0	0.979655	0.979989	0.980974	0.98256	0.984677	0.987243	0.99017	0.993371	
875.0	0.979671	0.980004	0.980988	0.982573	0.984688	0.987251	0.990176	0.993375	
876.0	0.979687	0.98002	0.981002	0.982585	0.984699	0.98726	0.990182	0.993378	
877.0	0.979702	0.980035	0.981016	0.982598	0.984709	0.987268	0.990188	0.993381	
878.0	0.979718	0.98005	0.98103	0.98261	0.98472	0.987276	0.990193	0.993385	
879.0	0.979734	0.980066	0.981045	0.982623	0.98473	0.987285	0.990199	0.993388	
880.0	0.979749	0.980081	0.981059	0.982635	0.984741	0.987293	0.990205	0.993392	
881.0	0.979765	0.980096	0.981073	0.982648	0.984751	0.987301	0.990211	0.993395	
882.0	0.97978	0.980111	0.981087	0.98266	0.984762	0.98731	0.990217	0.993399	
883.0	0.979795	0.980126	0.981101	0.982673	0.984773	0.987318	0.990223	0.993402	
884.0	0.979811	0.980141	0.981115	0.982685	0.984783	0.987326	0.990229	0.993406	
885.0	0.979826	0.980156	0.981129	0.982698	0.984793	0.987334	0.990235	0.993409	
886.0	0.979829	0.980159	0.981131	0.982699	0.984794	0.987335	0.990234	0.993408	
887.0	0.979813	0.980143	0.981116	0.982685	0.984781	0.987323	0.990225	0.993401	
888.0	0.979797	0.980127	0.981101	0.982671	0.984768	0.987312	0.990216	0.993394	
889.0	0.979782	0.980112	0.981086	0.982656	0.984755	0.9873	0.990206	0.993387	
890.0	0.979766	0.980097	0.981071	0.982642	0.984742	0.987289	0.990197	0.993381	
891.0	0.979751	0.980082	0.981056	0.982628	0.98473	0.987278	0.990188	0.993374	
892.0	0.979736	0.980067	0.981042	0.982615	0.984717	0.987267	0.990179	0.993367	
893.0	0.979721	0.980052	0.981027	0.982601	0.984705	0.987257	0.990171	0.993361	
894.0	0.979707	0.980037	0.981014	0.982588	0.984693	0.987246	0.990162	0.993354	
895.0	0.979692	0.980023	0.981	0.982575	0.984681	0.987235	0.990153	0.993348	
896.0	0.979678	0.980009	0.980986	0.982562	0.984669	0.987225	0.990145	0.993342	
897.0	0.979664	0.979995	0.980972	0.982549	0.984657	0.987215	0.990136	0.993335	
898.0	0.97965	0.979981	0.980959	0.982536	0.984645	0.987205	0.990128	0.993329	
899.0	0.979636	0.979968	0.980946	0.982524	0.984634	0.987195	0.99012	0.993323	
900.0	0.979623	0.979954	0.980933	0.982512	0.984623	0.987185	0.990112	0.993317	
901.0	0.979609	0.979941	0.98092	0.982499	0.984612	0.987175	0.990104	0.993311	
902.0	0.979596	0.979928	0.980907	0.982487	0.9846	0.987165	0.990096	0.993305	
903.0	0.979583	0.979915	0.980895	0.982476	0.98459	0.987156	0.990088	0.993299	
904.0	0.979571	0.979903	0.980882	0.982464	0.984579	0.987146	0.99008	0.993293	
905.0	0.979558	0.97989	0.98087	0.982452	0.984568	0.987137	0.990073	0.993288	
906.0	0.979545	0.979878	0.980858	0.982441	0.984558	0.987128	0.990065	0.993282	
907.0	0.979533	0.979865	0.980846	0.98243	0.984547	0.987119	0.990058	0.993277	
908.0	0.979521	0.979853	0.980834	0.982418	0.984537	0.98711	0.99005	0.993271	
909.0	0.979509	0.979841	0.980823	0.982407	0.984527	0.987101	0.990043	0.993266	
910.0	0.979497	0.979829	0.980811	0.982396	0.984517	0.987092	0.990036	0.99326	
911.0	0.979485	0.979818	0.9808	0.982386	0.984507	0.987084	0.990029	0.993255	
912.0	0.979474	0.979807	0.980789	0.982375	0.984498	0.987075	0.990022	0.99325	
913.0	0.979462	0.979795	0.980778	0.982365	0.984488	0.987067	0.990015	0.993245	
914.0	0.979451	0.979784	0.980767	0.982354	0.984479	0.987058	0.990008	0.99324	
915.0	0.97944	0.979773	0.980756	0.982344	0.984469	0.98705	0.990001	0.993234	
916.0	0.979429	0.979762	0.980746	0.982334	0.98446	0.987042	0.989995	0.993229	
917.0	0.979418	0.979751	0.980735	0.982324	0.984451	0.987034	0.989988	0.993225	
918.0	0.979407	0.979741	0.980725	0.982315	0.984442	0.987026	0.989981	0.99322	
919.0	0.979397	0.979731	0.980715	0.982305	0.984433	0.987018	0.989975	0.993215	
920.0	0.979387	0.97972	0.980705	0.982295	0.984424	0.987011	0.989969	0.99321	
921.0	0.979376	0.97971	0.980695	0.982286	0.984416	0.987003	0.989962	0.993205	
922.0	0.979366	0.9797	0.980685	0.982277	0.984407	0.986996	0.989956	0.993201	
923.0	0.979357	0.97969	0.980676	0.982268	0.984399	0.986988	0.98995	0.993196	
924.0	0.979347	0.979681	0.980666	0.982258	0.98439	0.986981	0.989944	0.993191	
925.0	0.979337	0.979671	0.980657	0.98225	0.984382	0.986974	0.989938	0.993187	
926.0	0.979327	0.979662	0.980648	0.982241	0.984374	0.986967	0.989932	0.993183	
927.0	0.979318	0.979652	0.980639	0.982232	0.984366	0.986959	0.989926	0.993178	
928.0	0.979309	0.979643	0.98063	0.982224	0.984358	0.986953	0.98992	0.993174	
929.0	0.9793	0.979634	0.980621	0.982215	0.98435	0.986946	0.989915	0.99317	
930.0	0.979291	0.979625	0.980612	0.982207	0.984343	0.986939	0.989909	0.993165	
931.0	0.979282	0.979616	0.980603	0.982199	0.984335	0.986932	0.989904	0.993161	
932.0	0.979273	0.979608	0.980595	0.982191	0.984328	0.986926	0.989898	0.993157	
933.0	0.979264	0.979599	0.980587	0.982183	0.98432	0.986919	0.989893	0.993153	
934.0	0.979256	0.979591	0.980578	0.982175	0.984313	0.986913	0.989887	0.993149	
935.0	0.979248	0.979582	0.98057	0.982167	0.984306	0.986906	0.989882	0.993145	
936.0	0.979239	0.979574	0.980562	0.982159	0.984299	0.9869	0.989877	0.993141	
937.0	0.979231	0.979566	0.980554	0.982152	0.984292	0.986894	0.989872	0.993137	
938.0	0.979223	0.979558	0.980547	0.982144	0.984285	0.986888	0.989867	0.993133	
939.0	0.979215	0.97955	0.980539	0.982137	0.984278	0.986882	0.989862	0.99313	
940.0	0.979208	0.979543	0.980531	0.98213	0.984271	0.986876	0.989857	0.993126	
941.0	0.9792	0.979535	0.980524	0.982123	0.984265	0.98687	0.989852	0.993122	
942.0	0.979192	0.979527	0.980516	0.982116	0.984258	0.986864	0.989847	0.993119	
943.0	0.979185	0.97952	0.980509	0.982109	0.984252	0.986859	0.989843	0.993115	
944.0	0.979178	0.979513	0.980502	0.982102	0.984246	0.986853	0.989838	0.993111	
945.0	0.97917	0.979506	0.980495	0.982095	0.984239	0.986848	0.989833	0.993108	
946.0	0.979163	0.979499	0.980488	0.982088	0.984233	0.986842	0.989829	0.993105	
947.0	0.979156	0.979492	0.980482	0.982082	0.984227	0.986837	0.989824	0.993101	
948.0	0.97915	0.979485	0.980475	0.982075	0.984221	0.986831	0.98982	0.993098	
949.0	0.979143	0.979478	0.980468	0.982069	0.984215	0.986826	0.989815	0.993094	
950.0	0.979136	0.979471	0.980462	0.982063	0.984209	0.986821	0.989811	0.993091	
951.0	0.97913	0.979465	0.980455	0.982057	0.984204	0.986816	0.989807	0.993088	
952.0	0.979123	0.979458	0.980449	0.982051	0.984198	0.986811	0.989803	0.993085	
953.0	0.979117	0.979452	0.980443	0.982045	0.984192	0.986806	0.989799	0.993082	
954.0	0.979115	0.979451	0.980441	0.982043	0.984191	0.986804	0.989797	0.99308	
955.0	0.979125	0.97946	0.98045	0.982051	0.984197	0.986809	0.9898	0.993082	
956.0	0.979134	0.979469	0.980458	0.982058	0.984204	0.986814	0.989804	0.993084	
957.0	0.979144	0.979479	0.980467	0.982066	0.98421	0.986819	0.989808	0.993086	
958.0	0.979153	0.979488	0.980476	0.982074	0.984217	0.986824	0.989811	0.993088	
959.0	0.979163	0.979497	0.980485	0.982082	0.984223	0.98683	0.989815	0.993091	
960.0	0.979173	0.979507	0.980493	0.982089	0.984229	0.986835	0.989819	0.993093	
961.0	0.979182	0.979516	0.980502	0.982097	0.984236	0.98684	0.989822	0.993095	
962.0	0.979192	0.979525	0.980511	0.982105	0.984243	0.986845	0.989826	0.993097	
963.0	0.979201	0.979535	0.98052	0.982113	0.984249	0.98685	0.98983	0.993099	
964.0	0.979211	0.979544	0.980528	0.98212	0.984256	0.986855	0.989834	0.993102	
965.0	0.979221	0.979553	0.980537	0.982128	0.984262	0.98686	0.989837	0.993104	
966.0	0.97923	0.979563	0.980546	0.982136	0.984269	0.986866	0.989841	0.993106	
967.0	0.97924	0.979572	0.980555	0.982144	0.984275	0.986871	0.989845	0.993108	
968.0	0.97925	0.979582	0.980563	0.982152	0.984282	0.986876	0.989848	0.99311	
969.0	0.979259	0.979591	0.980572	0.982159	0.984289	0.986881	0.989852	0.993113	
970.0	0.979269	0.979601	0.980581	0.982167	0.984295	0.986887	0.989856	0.993115	
971.0	0.979278	0.97961	0.98059	0.982175	0.984302	0.986892	0.98986	0.993117	
972.0	0.979288	0.97962	0.980599	0.982183	0.984308	0.986897	0.989864	0.99312	
973.0	0.979298	0.979629	0.980607	0.982191	0.984315	0.986902	0.989867	0.993122	
974.0	0.979307	0.979638	0.980616	0.982199	0.984322	0.986908	0.989871	0.993124	
975.0	0.979317	0.979648	0.980625	0.982206	0.984328	0.986913	0.989875	0.993126	
976.0	0.979327	0.979657	0.980634	0.982214	0.984335	0.986918	0.989879	0.993129	
977.0	0.979336	0.979667	0.980643	0.982222	0.984342	0.986924	0.989883	0.993131	
978.0	0.979346	0.979676	0.980651	0.98223	0.984348	0.986929	0.989887	0.993133	
979.0	0.979356	0.979686	0.98066	0.982238	0.984355	0.986934	0.98989	0.993136	
980.0	0.979365	0.979695	0.980669	0.982246	0.984362	0.98694	0.989894	0.993138	
981.0	0.979375	0.979704	0.980678	0.982254	0.984368	0.986945	0.989898	0.99314	
982.0	0.979385	0.979714	0.980687	0.982262	0.984375	0.98695	0.989902	0.993143	
983.0	0.979394	0.979723	0.980696	0.98227	0.984382	0.986956	0.989906	0.993145	
984.0	0.979404	0.979733	0.980704	0.982277	0.984389	0.986961	0.98991	0.993148	
985.0	0.979414	0.979742	0.980713	0.982285	0.984395	0.986966	0.989914	0.99315	
986.0	0.979423	0.979752	0.980722	0.982293	0.984402	0.986972	0.989918	0.993152	
987.0	0.979433	0.979761	0.980731	0.982301	0.984409	0.986977	0.989922	0.993155	
988.0	0.979443	0.979771	0.98074	0.982309	0.984415	0.986982	0.989925	0.993157	
989.0	0.979452	0.97978	0.980749	0.982317	0.984422	0.986988	0.989929	0.99316	
990.0	0.979462	0.97979	0.980758	0.982325	0.984429	0.986993	0.989933	0.993162	
991.0	0.979472	0.979799	0.980766	0.982333	0.984436	0.986999	0.989937	0.993164	
992.0	0.979481	0.979809	0.980775	0.982341	0.984442	0.987004	0.989941	0.993167	
993.0	0.979491	0.979818	0.980784	0.982349	0.984449	0.987009	0.989945	0.993169	
994.0	0.979501	0.979827	0.980793	0.982356	0.984456	0.987015	0.989949	0.993172	
995.0	0.97951	0.979837	0.980802	0.982364	0.984463	0.98702	0.989953	0.993174	
996.0	0.97952	0.979846	0.980811	0.982372	0.984469	0.987025	0.989957	0.993177	
997.0	0.97953	0.979856	0.98082	0.98238	0.984476	0.987031	0.989961	0.993179	
998.0	0.979539	0.979865	0.980828	0.982388	0.984483	0.987036	0.989965	0.993182	
999.0	0.979549	0.979874	0.980837	0.982396	0.98449	0.987042	0.989969	0.993184	
1000.0	0.979559	0.979884	0.980846	0.982404	0.984496	0.987047	0.989973	0.993186	
