wavelength	0.0	10.0	20.0	30.0	40.0	50.0	60.0	70.0
251.0	0.292738	0.29805	0.314375	0.343198	0.387511	0.451499	0.539807	0.65721	
252.0	0.291946	0.297214	0.313441	0.342187	0.386495	0.450551	0.538985	0.656574	
253.0	0.291118	0.29635	0.312501	0.341195	0.385516	0.449646	0.538205	0.655972	
254.0	0.290269	0.295472	0.311564	0.340225	0.384568	0.448775	0.537457	0.655397	
255.0	0.28942	0.2946	0.310646	0.339285	0.383658	0.447942	0.536742	0.654849	
256.0	0.28858	0.293741	0.30975	0.338378	0.382784	0.447144	0.536058	0.654325	
257.0	0.287755	0.2929	0.30888	0.337502	0.381943	0.446376	0.5354	0.653822	
258.0	0.286947	0.292078	0.308035	0.336654	0.38113	0.445633	0.534763	0.653335	
259.0	0.286098	0.291218	0.307155	0.335772	0.380277	0.44484	0.53407	0.652795	
260.0	0.285241	0.29035	0.306269	0.334883	0.379414	0.444033	0.533359	0.652238	
261.0	0.284391	0.289492	0.305394	0.334007	0.378563	0.443239	0.53266	0.651691	
262.0	0.283545	0.288638	0.304527	0.333141	0.377725	0.442456	0.531974	0.651158	
263.0	0.282701	0.287786	0.303665	0.332285	0.376898	0.441687	0.531303	0.65064	
264.0	0.281686	0.286764	0.302631	0.331251	0.375888	0.440736	0.530462	0.649982	
265.0	0.27999	0.285054	0.300888	0.329478	0.374111	0.43901	0.52889	0.648714	
266.0	0.278305	0.283356	0.29916	0.327723	0.372354	0.437308	0.527341	0.647468	
267.0	0.276634	0.281674	0.297451	0.325989	0.37062	0.435629	0.525818	0.646247	
268.0	0.27498	0.280009	0.295761	0.324277	0.368909	0.433975	0.52432	0.645051	
269.0	0.273344	0.278363	0.294092	0.322587	0.367223	0.432347	0.522849	0.643879	
270.0	0.271722	0.276731	0.292437	0.320913	0.365551	0.43073	0.521389	0.642718	
271.0	0.270116	0.275116	0.290801	0.319256	0.363895	0.429129	0.519941	0.641569	
272.0	0.268533	0.273525	0.28919	0.317626	0.362266	0.427556	0.518524	0.640448	
273.0	0.266975	0.271958	0.287604	0.316023	0.360666	0.426012	0.517137	0.639357	
274.0	0.265441	0.270417	0.286045	0.314446	0.359094	0.424499	0.515783	0.638297	
275.0	0.263932	0.268901	0.284511	0.312897	0.35755	0.423016	0.514461	0.637268	
276.0	0.261906	0.266861	0.282436	0.31078	0.355418	0.420944	0.51259	0.635788	
277.0	0.259362	0.264296	0.279814	0.308092	0.352693	0.418279	0.510164	0.633849	
278.0	0.256841	0.261754	0.277218	0.305428	0.349992	0.415639	0.507764	0.631936	
279.0	0.254346	0.259238	0.274646	0.302789	0.347316	0.413025	0.505391	0.630049	
280.0	0.251876	0.256748	0.272101	0.300176	0.344667	0.410437	0.503046	0.628187	
281.0	0.249434	0.254285	0.269582	0.29759	0.342044	0.407876	0.500728	0.626351	
282.0	0.246889	0.251717	0.266956	0.294891	0.339306	0.405205	0.498313	0.624441	
283.0	0.243843	0.248643	0.263805	0.29165	0.336016	0.401996	0.495413	0.622142	
284.0	0.240812	0.245583	0.260669	0.28842	0.332737	0.398799	0.492524	0.619855	
285.0	0.237797	0.242539	0.257547	0.285204	0.32947	0.395611	0.489646	0.617578	
286.0	0.234798	0.239511	0.25444	0.282001	0.326214	0.392435	0.486779	0.615311	
287.0	0.231816	0.236499	0.251348	0.278812	0.322969	0.389268	0.483921	0.613054	
288.0	0.228851	0.233503	0.248271	0.275635	0.319735	0.386111	0.481074	0.610806	
289.0	0.225085	0.229695	0.244351	0.271575	0.315589	0.382047	0.477386	0.607869	
290.0	0.220968	0.225531	0.240058	0.267121	0.31103	0.377569	0.473314	0.604617	
291.0	0.216846	0.22136	0.235755	0.262651	0.30645	0.373067	0.469218	0.601346	
292.0	0.212721	0.217184	0.231444	0.258169	0.301852	0.368544	0.465103	0.598061	
293.0	0.208593	0.213005	0.227126	0.253675	0.297238	0.364003	0.460973	0.594766	
294.0	0.204465	0.208825	0.222805	0.249173	0.292612	0.359448	0.456832	0.591466	
295.0	0.200338	0.204646	0.218482	0.244666	0.287977	0.354884	0.452686	0.588167	
296.0	0.194706	0.198935	0.212557	0.23846	0.281556	0.348511	0.446835	0.583446	
297.0	0.188679	0.19282	0.206203	0.231787	0.274632	0.341619	0.440486	0.578308	
298.0	0.182639	0.186691	0.199825	0.225077	0.267654	0.33466	0.434069	0.573109	
299.0	0.176301	0.180258	0.193133	0.218044	0.260355	0.327401	0.4274	0.567723	
300.0	0.168707	0.172561	0.18516	0.209727	0.251821	0.319037	0.419828	0.56168	
301.0	0.161009	0.164756	0.177065	0.20127	0.243127	0.310497	0.41208	0.555479	
302.0	0.153224	0.156859	0.168866	0.192688	0.234283	0.301788	0.404156	0.549111	
303.0	0.145194	0.148731	0.160486	0.184026	0.225518	0.293353	0.39667	0.543222	
304.0	0.136909	0.140359	0.151898	0.175229	0.216733	0.285037	0.389417	0.537594	
305.0	0.12849	0.131851	0.143166	0.166276	0.207778	0.276533	0.381954	0.531743	
306.0	0.119958	0.123226	0.134308	0.157176	0.198644	0.267812	0.374231	0.525608	
307.0	0.111648	0.114871	0.12587	0.148769	0.190582	0.260556	0.368214	0.521091	
308.0	0.103304	0.10649	0.117432	0.140405	0.182615	0.253435	0.362329	0.516651	
309.0	0.094917	0.098067	0.108957	0.132008	0.174616	0.246265	0.356347	0.512064	
310.0	0.086511	0.089627	0.100466	0.123598	0.166597	0.239049	0.350268	0.507326	
311.0	0.076038	0.079181	0.09019	0.113853	0.157952	0.232049	0.345104	0.503775	
312.0	0.068659	0.071926	0.083386	0.108011	0.153692	0.229795	0.344707	0.504442	
313.0	0.064668	0.06817	0.080404	0.106473	0.154254	0.232723	0.349461	0.509621	
314.0	0.061738	0.065569	0.078861	0.10683	0.157258	0.238556	0.357279	0.517539	
315.0	0.06259	0.067124	0.082604	0.114302	0.169584	0.255617	0.377059	0.536235	
316.0	0.067295	0.07264	0.090575	0.12626	0.186397	0.276709	0.399965	0.556937	
317.0	0.074939	0.081098	0.101443	0.140863	0.205244	0.298869	0.422871	0.576876	
318.0	0.086611	0.093738	0.116888	0.160484	0.229305	0.325946	0.449863	0.599698	
319.0	0.111581	0.120186	0.147483	0.196866	0.271164	0.37051	0.492337	0.634409	
320.0	0.137421	0.147198	0.177668	0.231135	0.308688	0.40862	0.527162	0.66185	
321.0	0.160104	0.170675	0.203213	0.259104	0.338142	0.437438	0.552619	0.681308	
322.0	0.185242	0.196522	0.230837	0.28862	0.368416	0.466321	0.577562	0.699999	
323.0	0.21895	0.230968	0.267051	0.326447	0.406282	0.501635	0.607475	0.722066	
324.0	0.251979	0.264496	0.30167	0.361721	0.440655	0.53287	0.633307	0.740704	
325.0	0.278047	0.290809	0.328425	0.388409	0.466057	0.555411	0.651498	0.753489	
326.0	0.304977	0.317885	0.355661	0.415179	0.491137	0.577326	0.668929	0.765565	
327.0	0.336786	0.34974	0.387371	0.445911	0.519508	0.601794	0.688189	0.778802	
328.0	0.370889	0.383758	0.420875	0.477916	0.548607	0.626536	0.707414	0.791855	
329.0	0.405128	0.417784	0.454053	0.509184	0.576627	0.650026	0.725415	0.803896	
330.0	0.439162	0.451493	0.486628	0.53951	0.603451	0.672226	0.742206	0.814961	
331.0	0.473987	0.485861	0.519518	0.569737	0.629829	0.693789	0.758327	0.82545	
332.0	0.509417	0.5207	0.552543	0.599706	0.65565	0.714656	0.773763	0.835369	
333.0	0.534108	0.544882	0.575218	0.619968	0.672788	0.728196	0.783455	0.841273	
334.0	0.551735	0.562083	0.591185	0.634023	0.684446	0.737157	0.78958	0.844696	
335.0	0.568464	0.578393	0.606283	0.647261	0.695369	0.745486	0.795185	0.847726	
336.0	0.584511	0.594025	0.620723	0.659881	0.705737	0.753334	0.800387	0.850446	
337.0	0.599724	0.608831	0.63437	0.67177	0.715455	0.760626	0.805132	0.852825	
338.0	0.614112	0.622826	0.647244	0.682948	0.724547	0.767385	0.809442	0.854882	
339.0	0.627712	0.636046	0.659381	0.693455	0.73305	0.773646	0.813348	0.856646	
340.0	0.640189	0.648163	0.670478	0.703018	0.740733	0.779223	0.816715	0.858038	
341.0	0.651133	0.658776	0.680157	0.711301	0.747309	0.783889	0.819379	0.85896	
342.0	0.661475	0.668802	0.689289	0.719095	0.753466	0.788206	0.82177	0.859709	
343.0	0.671254	0.678278	0.697908	0.726434	0.759233	0.792202	0.823916	0.860312	
344.0	0.680501	0.687235	0.706047	0.733346	0.764637	0.795902	0.825841	0.860798	
345.0	0.688822	0.69529	0.71335	0.739519	0.769412	0.79909	0.827387	0.861072	
346.0	0.696445	0.702666	0.720024	0.745137	0.773716	0.801897	0.82866	0.861214	
347.0	0.703693	0.709676	0.726361	0.750458	0.777773	0.804512	0.829814	0.86134	
348.0	0.710588	0.716343	0.732382	0.755503	0.781599	0.806953	0.830869	0.861472	
349.0	0.717153	0.72269	0.738109	0.760292	0.785218	0.809242	0.831851	0.861639	
350.0	0.723411	0.728738	0.743564	0.764847	0.788648	0.811401	0.832785	0.86186	
351.0	0.729384	0.734511	0.748766	0.769187	0.79191	0.81345	0.83369	0.862154	
352.0	0.735091	0.740026	0.753736	0.77333	0.79502	0.815404	0.834584	0.862533	
353.0	0.740553	0.745304	0.758491	0.777292	0.797995	0.817282	0.835481	0.863005	
354.0	0.745786	0.750361	0.763048	0.781091	0.800849	0.819096	0.836396	0.863575	
355.0	0.750602	0.755014	0.767238	0.784574	0.80345	0.820733	0.83723	0.864154	
356.0	0.755195	0.759452	0.771234	0.787897	0.805935	0.82231	0.838079	0.864809	
357.0	0.759631	0.763739	0.775097	0.791114	0.80835	0.823868	0.838971	0.865556	
358.0	0.76392	0.767885	0.778835	0.794234	0.810703	0.82541	0.839909	0.866387	
359.0	0.768072	0.7719	0.782459	0.797263	0.813	0.826942	0.840889	0.867293	
360.0	0.772094	0.775791	0.785974	0.800208	0.815246	0.828465	0.841911	0.868266	
361.0	0.775994	0.779564	0.789386	0.803074	0.817443	0.829981	0.84297	0.869298	
362.0	0.779779	0.783227	0.792702	0.805866	0.819598	0.831492	0.844068	0.870381	
363.0	0.783454	0.786785	0.795928	0.808589	0.821712	0.833	0.845199	0.871509	
364.0	0.787027	0.790245	0.799068	0.811248	0.82379	0.834506	0.846363	0.872674	
365.0	0.789306	0.792441	0.801029	0.812856	0.82498	0.835312	0.847016	0.873467	
366.0	0.788783	0.791896	0.800421	0.812159	0.824197	0.834525	0.846459	0.87335	
367.0	0.788292	0.791383	0.799848	0.811503	0.823466	0.833802	0.845966	0.873269	
368.0	0.787831	0.790902	0.799312	0.81089	0.822786	0.833141	0.845535	0.873223	
369.0	0.787403	0.790455	0.798812	0.810321	0.82216	0.832544	0.845166	0.873209	
370.0	0.787011	0.790044	0.798353	0.809799	0.821592	0.832015	0.844859	0.873226	
371.0	0.786658	0.789675	0.797939	0.809328	0.821084	0.831555	0.844613	0.87327	
372.0	0.786347	0.789348	0.797571	0.80891	0.820638	0.831162	0.844425	0.873337	
373.0	0.786081	0.789067	0.797253	0.808549	0.820256	0.830838	0.844289	0.873421	
374.0	0.78586	0.788833	0.796986	0.808244	0.819937	0.830578	0.844202	0.873517	
375.0	0.785688	0.788649	0.796771	0.807996	0.819683	0.830383	0.84416	0.873622	
376.0	0.786333	0.789267	0.797318	0.808448	0.820045	0.830705	0.844517	0.874005	
377.0	0.788774	0.791648	0.79953	0.810415	0.821734	0.832129	0.84573	0.875016	
378.0	0.791204	0.79402	0.801739	0.812389	0.823439	0.833569	0.846941	0.875997	
379.0	0.793625	0.796385	0.803948	0.81437	0.825157	0.83502	0.848142	0.876938	
380.0	0.796037	0.798743	0.806155	0.816357	0.826885	0.836476	0.849322	0.87783	
381.0	0.798438	0.801092	0.808356	0.818343	0.828615	0.837923	0.850468	0.878663	
382.0	0.800824	0.803426	0.810547	0.820323	0.830338	0.839354	0.851572	0.879433	
383.0	0.803191	0.805743	0.812724	0.822291	0.832049	0.840762	0.852627	0.880136	
384.0	0.805536	0.808039	0.814882	0.824243	0.833743	0.842141	0.853631	0.880775	
385.0	0.807856	0.810311	0.817018	0.826175	0.835416	0.843488	0.85458	0.881346	
386.0	0.810148	0.812556	0.81913	0.828085	0.837065	0.8448	0.855474	0.881851	
387.0	0.812411	0.814773	0.821216	0.829971	0.838687	0.846076	0.856312	0.882292	
388.0	0.81499	0.8173	0.823593	0.832117	0.840525	0.847505	0.857229	0.882753	
389.0	0.817872	0.820123	0.826249	0.834511	0.842568	0.84908	0.85822	0.883232	
390.0	0.820705	0.822898	0.828859	0.836863	0.84457	0.85061	0.859152	0.883649	
391.0	0.823487	0.825624	0.831423	0.839173	0.846533	0.852098	0.860031	0.884009	
392.0	0.826219	0.828302	0.833943	0.841445	0.848463	0.853552	0.860868	0.884322	
393.0	0.82891	0.830939	0.836428	0.843689	0.850372	0.854989	0.86168	0.8846	
394.0	0.831569	0.833547	0.838888	0.845916	0.852274	0.856425	0.862479	0.884844	
395.0	0.834204	0.836134	0.841334	0.848138	0.854182	0.85787	0.86327	0.885051	
396.0	0.836826	0.838708	0.843773	0.850364	0.856104	0.859332	0.864055	0.885212	
397.0	0.839441	0.841279	0.846215	0.852602	0.858049	0.860818	0.864833	0.885319	
398.0	0.842058	0.843853	0.848666	0.854859	0.860023	0.862332	0.865602	0.885359	
399.0	0.844682	0.846437	0.851135	0.857144	0.862036	0.863881	0.86636	0.885316	
400.0	0.847321	0.849037	0.853626	0.859463	0.864092	0.865466	0.867098	0.885172	
401.0	0.849429	0.851122	0.855645	0.861375	0.865826	0.86681	0.867639	0.884866	
402.0	0.851571	0.853242	0.857704	0.863339	0.867619	0.868195	0.86814	0.88441	
403.0	0.853749	0.855401	0.859809	0.865357	0.869471	0.86962	0.868582	0.883765	
404.0	0.855971	0.857606	0.861966	0.867434	0.871388	0.871083	0.868943	0.882883	
405.0	0.858241	0.859859	0.864177	0.869574	0.873369	0.872572	0.869184	0.881692	
406.0	0.860549	0.862154	0.866433	0.871764	0.875393	0.874053	0.869236	0.8801	
407.0	0.862883	0.864475	0.868719	0.873984	0.877439	0.875495	0.86904	0.878027	
408.0	0.865231	0.866812	0.871022	0.876223	0.879492	0.876873	0.868539	0.875384	
409.0	0.867583	0.869152	0.873331	0.878467	0.881536	0.87816	0.867665	0.872066	
410.0	0.869928	0.871487	0.875636	0.880707	0.883558	0.879333	0.866338	0.867955	
411.0	0.872259	0.873808	0.877927	0.882932	0.885545	0.880361	0.864458	0.862909	
412.0	0.874567	0.876106	0.880197	0.885131	0.887482	0.881209	0.861899	0.856778	
413.0	0.876841	0.878371	0.882433	0.887292	0.889352	0.881833	0.858501	0.849415	
414.0	0.879408	0.880922	0.884934	0.889679	0.89137	0.882372	0.854182	0.840649	
415.0	0.882058	0.883553	0.887504	0.892112	0.893374	0.88265	0.848612	0.830423	
416.0	0.884633	0.886108	0.889996	0.894455	0.895235	0.882501	0.841412	0.818906	
417.0	0.88712	0.888574	0.892394	0.896687	0.896916	0.881813	0.83218	0.806612	
418.0	0.889503	0.890934	0.894679	0.898783	0.898372	0.880451	0.820461	0.794582	
419.0	0.891766	0.893173	0.896832	0.900718	0.899557	0.878265	0.805824	0.784422	
420.0	0.893908	0.895287	0.89885	0.902484	0.900449	0.875122	0.787961	0.77789	
421.0	0.895931	0.897279	0.900735	0.904082	0.901031	0.870866	0.76672	0.776339	
422.0	0.897838	0.899153	0.902488	0.905507	0.901275	0.865292	0.742315	0.780231	
423.0	0.899632	0.90091	0.904111	0.906756	0.90115	0.858147	0.715624	0.788955	
424.0	0.901315	0.902552	0.905602	0.907823	0.900615	0.849126	0.688518	0.801124	
425.0	0.902888	0.90408	0.906963	0.9087	0.899624	0.837868	0.663907	0.815108	
426.0	0.904356	0.905498	0.908195	0.909382	0.898124	0.823963	0.645273	0.829507	
427.0	0.90572	0.906807	0.909296	0.909858	0.896049	0.806955	0.635676	0.843355	
428.0	0.906818	0.907849	0.910116	0.909986	0.893224	0.786495	0.636495	0.855805	
429.0	0.907662	0.908634	0.910663	0.909761	0.889574	0.762357	0.646551	0.866674	
430.0	0.908421	0.909326	0.911089	0.90931	0.88512	0.734372	0.663378	0.87626	
431.0	0.909098	0.909931	0.911398	0.908625	0.879758	0.702776	0.68415	0.884653	
432.0	0.909698	0.910451	0.91159	0.907693	0.873369	0.668337	0.706414	0.89199	
433.0	0.910227	0.910893	0.911669	0.906505	0.865813	0.632539	0.728438	0.898413	
434.0	0.910688	0.911258	0.911633	0.90504	0.856912	0.597621	0.74922	0.90406	
435.0	0.911079	0.911545	0.911478	0.903267	0.846442	0.566501	0.76828	0.90905	
436.0	0.911397	0.911749	0.91119	0.901146	0.834135	0.54234	0.78546	0.913479	
437.0	0.911637	0.911864	0.91076	0.898631	0.819704	0.527754	0.800775	0.917425	
438.0	0.911797	0.911885	0.910174	0.89567	0.802828	0.52401	0.814356	0.920958	
439.0	0.91187	0.911805	0.909416	0.892201	0.783184	0.530729	0.826365	0.924133	
440.0	0.911851	0.911617	0.90847	0.888153	0.760468	0.546099	0.836986	0.926999	
441.0	0.911734	0.911313	0.90732	0.883449	0.734462	0.567564	0.84639	0.929596	
442.0	0.911513	0.910886	0.905944	0.877994	0.70508	0.59254	0.854737	0.93196	
443.0	0.911253	0.910395	0.904384	0.871728	0.672304	0.619157	0.862345	0.934202	
444.0	0.911152	0.910031	0.902797	0.86462	0.635828	0.646879	0.869809	0.936571	
445.0	0.910916	0.909504	0.900894	0.85633	0.597383	0.673447	0.876503	0.938754	
446.0	0.910533	0.908797	0.898634	0.846669	0.558817	0.698186	0.882528	0.940771	
447.0	0.909992	0.907896	0.895977	0.835427	0.522679	0.720794	0.887973	0.942642	
448.0	0.909281	0.906782	0.892875	0.822366	0.491976	0.741218	0.892912	0.944383	
449.0	0.908384	0.905435	0.88927	0.807213	0.469628	0.759541	0.89741	0.946007	
450.0	0.907286	0.90383	0.885094	0.789659	0.45774	0.775936	0.901524	0.947527	
451.0	0.905965	0.901941	0.88027	0.769394	0.457127	0.790587	0.905299	0.948955	
452.0	0.904395	0.89973	0.874701	0.746095	0.467116	0.803682	0.908775	0.950298	
453.0	0.90255	0.897161	0.868278	0.719492	0.485813	0.815408	0.911986	0.951564	
454.0	0.900394	0.894184	0.860869	0.689415	0.510739	0.825927	0.914959	0.952761	
455.0	0.897895	0.890751	0.852331	0.655903	0.539342	0.835389	0.917723	0.953894	
456.0	0.895006	0.886798	0.842488	0.619311	0.56947	0.843924	0.920297	0.954968	
457.0	0.891681	0.882258	0.831146	0.580466	0.599492	0.851646	0.9227	0.95599	
458.0	0.887858	0.877043	0.818066	0.540766	0.628344	0.858655	0.92495	0.956961	
459.0	0.883476	0.871065	0.803008	0.50228	0.655377	0.865038	0.927062	0.957888	
460.0	0.878462	0.864221	0.78573	0.467703	0.680155	0.870832	0.929036	0.958767	
461.0	0.872731	0.856387	0.765931	0.439688	0.702715	0.876135	0.930894	0.959607	
462.0	0.866171	0.847402	0.743286	0.420653	0.723158	0.881012	0.93265	0.960412	
463.0	0.858669	0.837106	0.717543	0.412193	0.741599	0.885507	0.934312	0.961183	
464.0	0.850086	0.825299	0.688487	0.414646	0.758213	0.889665	0.935887	0.961924	
465.0	0.840255	0.811754	0.656058	0.427122	0.773168	0.893519	0.937383	0.962636	
466.0	0.828999	0.796228	0.620433	0.44773	0.786641	0.897101	0.938807	0.963321	
467.0	0.816107	0.778448	0.582138	0.474137	0.798795	0.900439	0.940163	0.963981	
468.0	0.801338	0.75812	0.542168	0.504027	0.809781	0.903557	0.941457	0.964617	
469.0	0.784433	0.734956	0.502102	0.535402	0.819732	0.906475	0.942693	0.965231	
470.0	0.765101	0.708681	0.464078	0.566748	0.828769	0.909213	0.943875	0.965823	
471.0	0.743054	0.679105	0.430677	0.597007	0.836995	0.911786	0.945008	0.966397	
472.0	0.718009	0.646167	0.404536	0.625539	0.844504	0.914209	0.946094	0.966951	
473.0	0.689736	0.610033	0.387867	0.652005	0.851375	0.916495	0.947136	0.967488	
474.0	0.658094	0.5712	0.381964	0.676291	0.857681	0.918655	0.948137	0.968008	
475.0	0.623151	0.53066	0.386919	0.698405	0.863481	0.9207	0.9491	0.968511	
476.0	0.585233	0.489929	0.401646	0.718456	0.86883	0.922639	0.950027	0.969	
477.0	0.545115	0.451173	0.424253	0.736537	0.873736	0.924454	0.950903	0.969463	
478.0	0.50444	0.417582	0.452535	0.752378	0.877933	0.925945	0.951588	0.969811	
479.0	0.464959	0.391254	0.483727	0.766645	0.881822	0.927362	0.952248	0.970149	
480.0	0.428987	0.374276	0.515976	0.779514	0.885435	0.928711	0.952885	0.970477	
481.0	0.39905	0.367851	0.547891	0.79114	0.888799	0.929996	0.9535	0.970796	
482.0	0.377464	0.372037	0.578529	0.801665	0.891937	0.931222	0.954094	0.971107	
483.0	0.365868	0.38579	0.607329	0.811213	0.89487	0.932392	0.954668	0.971408	
484.0	0.364877	0.407278	0.634008	0.819899	0.897618	0.933512	0.955223	0.971702	
485.0	0.373985	0.434302	0.658478	0.827818	0.900197	0.934584	0.95576	0.971988	
486.0	0.391732	0.464689	0.680768	0.835055	0.902622	0.935611	0.956281	0.972267	
487.0	0.416099	0.496581	0.700997	0.841687	0.904905	0.936596	0.956786	0.972538	
488.0	0.444898	0.528525	0.719308	0.847778	0.907059	0.937542	0.957276	0.972803	
489.0	0.476116	0.559501	0.735869	0.853386	0.909094	0.938452	0.957751	0.973061	
490.0	0.508114	0.588867	0.750849	0.858562	0.91102	0.939326	0.958213	0.973313	
491.0	0.539664	0.616262	0.764411	0.863351	0.912846	0.940169	0.958661	0.973559	
492.0	0.569937	0.641534	0.776703	0.867791	0.914578	0.940981	0.959097	0.9738	
493.0	0.59843	0.664672	0.787863	0.871915	0.916224	0.941764	0.959522	0.974034	
494.0	0.624886	0.685752	0.798014	0.875756	0.917791	0.942519	0.959934	0.974264	
495.0	0.649221	0.704898	0.807266	0.879338	0.919283	0.943249	0.960336	0.974488	
496.0	0.671637	0.722398	0.815788	0.882717	0.92072	0.943961	0.960731	0.974709	
497.0	0.693399	0.739338	0.824155	0.88613	0.922206	0.944708	0.961147	0.974942	
498.0	0.713035	0.754597	0.831784	0.889315	0.923621	0.945428	0.961551	0.97517	
499.0	0.730735	0.76836	0.838761	0.892295	0.92497	0.946123	0.961945	0.975392	
500.0	0.746691	0.780792	0.845155	0.895086	0.926257	0.946794	0.962327	0.975609	
501.0	0.761081	0.792041	0.85103	0.897707	0.927487	0.947443	0.9627	0.975821	
502.0	0.774082	0.802245	0.856443	0.900171	0.928663	0.948071	0.963062	0.976027	
503.0	0.785846	0.811522	0.86144	0.902492	0.929789	0.948678	0.963416	0.976229	
504.0	0.796509	0.819971	0.866063	0.904681	0.930869	0.949267	0.96376	0.976427	
505.0	0.806197	0.827689	0.870351	0.90675	0.931904	0.949837	0.964096	0.97662	
506.0	0.815019	0.834754	0.874336	0.908707	0.932899	0.950391	0.964423	0.976808	
507.0	0.823071	0.841238	0.878046	0.910562	0.933854	0.950927	0.964743	0.976993	
508.0	0.830438	0.847202	0.881508	0.912322	0.934773	0.951448	0.965055	0.977173	
509.0	0.837196	0.852701	0.884746	0.913994	0.935659	0.951954	0.96536	0.977349	
510.0	0.843406	0.857781	0.887776	0.915585	0.936511	0.952446	0.965657	0.97752	
511.0	0.849129	0.862487	0.890621	0.9171	0.937333	0.952924	0.965948	0.977688	
512.0	0.854414	0.866854	0.893294	0.918544	0.938127	0.95339	0.966232	0.977852	
513.0	0.859303	0.870915	0.89581	0.919923	0.938893	0.953842	0.96651	0.978011	
514.0	0.863839	0.874699	0.898183	0.921241	0.939633	0.954283	0.966782	0.978166	
515.0	0.868054	0.878232	0.900424	0.922502	0.940349	0.954713	0.967048	0.978316	
516.0	0.871979	0.881536	0.902543	0.923709	0.941042	0.955131	0.967308	0.978461	
517.0	0.875587	0.884586	0.90452	0.924851	0.941705	0.955536	0.967562	0.9786	
518.0	0.878885	0.887387	0.906356	0.925926	0.942337	0.955925	0.967808	0.978732	
519.0	0.881983	0.890028	0.908103	0.92696	0.942951	0.956306	0.968049	0.978858	
520.0	0.884897	0.892521	0.909768	0.927956	0.943547	0.956679	0.968286	0.978976	
521.0	0.887641	0.894878	0.911356	0.928916	0.944127	0.957043	0.968518	0.979085	
522.0	0.890231	0.897109	0.912873	0.929842	0.944691	0.957399	0.968745	0.979182	
523.0	0.892677	0.899225	0.914324	0.930735	0.94524	0.957747	0.968969	0.979266	
524.0	0.894992	0.901233	0.915712	0.931599	0.945774	0.958088	0.969188	0.979333	
525.0	0.897185	0.903142	0.917042	0.932433	0.946294	0.958422	0.969403	0.97938	
526.0	0.899266	0.904958	0.918316	0.93324	0.9468	0.958748	0.969614	0.979405	
527.0	0.901243	0.906689	0.91954	0.934022	0.947294	0.959068	0.96982	0.979407	
528.0	0.903122	0.90834	0.920716	0.934778	0.947775	0.959382	0.970023	0.979385	
529.0	0.904912	0.909916	0.921846	0.935511	0.948245	0.959689	0.970221	0.979347	
530.0	0.906618	0.911422	0.922933	0.936222	0.948703	0.959989	0.970415	0.979307	
531.0	0.908247	0.912864	0.92398	0.936911	0.949149	0.960284	0.970604	0.979284	
532.0	0.909802	0.914244	0.924989	0.93758	0.949585	0.960572	0.97079	0.979304	
533.0	0.91129	0.915568	0.925962	0.93823	0.95001	0.960855	0.970971	0.979387	
534.0	0.912714	0.916838	0.926901	0.93886	0.950425	0.961132	0.971149	0.979541	
535.0	0.914079	0.918057	0.927808	0.939473	0.95083	0.961402	0.971324	0.979756	
536.0	0.915387	0.919229	0.928684	0.940069	0.951224	0.961667	0.971498	0.980012	
537.0	0.916643	0.920356	0.929531	0.940648	0.951609	0.961926	0.971672	0.980284	
538.0	0.91785	0.921441	0.93035	0.94121	0.951983	0.96218	0.971846	0.980552	
539.0	0.91901	0.922486	0.931143	0.941757	0.952346	0.962428	0.972021	0.980804	
540.0	0.920373	0.92373	0.932119	0.942463	0.952839	0.962782	0.972278	0.98109	
541.0	0.921714	0.924956	0.933086	0.943167	0.953332	0.963144	0.972541	0.981357	
542.0	0.923005	0.926139	0.934024	0.943851	0.95381	0.963501	0.9728	0.981602	
543.0	0.92425	0.927281	0.934932	0.944514	0.954273	0.963855	0.973055	0.981827	
544.0	0.925451	0.928384	0.935812	0.945155	0.954723	0.964205	0.973305	0.982035	
545.0	0.926611	0.929451	0.936664	0.945775	0.955162	0.964553	0.97355	0.98223	
546.0	0.92773	0.930481	0.937489	0.946372	0.955598	0.964895	0.97379	0.982414	
547.0	0.92881	0.931477	0.938286	0.946946	0.956035	0.965232	0.974026	0.982588	
548.0	0.929853	0.932439	0.939055	0.947497	0.956479	0.965563	0.974257	0.982755	
549.0	0.93086	0.933367	0.939794	0.94803	0.95693	0.965888	0.974484	0.982916	
550.0	0.93183	0.934261	0.940504	0.948549	0.957385	0.966206	0.974708	0.983072	
551.0	0.932764	0.935122	0.941182	0.949067	0.957838	0.966518	0.974927	0.983223	
552.0	0.933662	0.935946	0.941831	0.949595	0.958283	0.966824	0.975143	0.98337	
553.0	0.934521	0.936735	0.942454	0.950139	0.958717	0.967124	0.975356	0.983513	
554.0	0.935342	0.937486	0.943062	0.950699	0.959139	0.967419	0.975565	0.983654	
555.0	0.936124	0.938203	0.943667	0.951267	0.959549	0.967709	0.975772	0.983791	
556.0	0.936869	0.938893	0.944288	0.951831	0.959948	0.967995	0.975975	0.983926	
557.0	0.937587	0.93957	0.944932	0.952382	0.960336	0.968275	0.976175	0.984059	
558.0	0.938292	0.940253	0.945598	0.952915	0.960715	0.968552	0.976372	0.984189	
559.0	0.939005	0.940958	0.946271	0.95343	0.961085	0.968823	0.976567	0.984317	
560.0	0.939743	0.941691	0.946937	0.953927	0.961448	0.969091	0.976758	0.984443	
561.0	0.940508	0.942441	0.947585	0.954407	0.961803	0.969355	0.976947	0.984568	
562.0	0.94129	0.943192	0.948209	0.954873	0.962151	0.969614	0.977134	0.98469	
563.0	0.942069	0.943926	0.948808	0.955326	0.962493	0.96987	0.977317	0.984811	
564.0	0.942769	0.944575	0.949329	0.955719	0.962787	0.970087	0.977473	0.984912	
565.0	0.943351	0.945108	0.949748	0.956028	0.963013	0.97025	0.977587	0.984986	
566.0	0.943904	0.945615	0.950151	0.95633	0.963235	0.970412	0.977699	0.985058	
567.0	0.94443	0.946098	0.950541	0.956625	0.963453	0.97057	0.977811	0.98513	
568.0	0.944932	0.946562	0.950919	0.956914	0.963668	0.970726	0.97792	0.985201	
569.0	0.945413	0.947009	0.951286	0.957196	0.963879	0.97088	0.978029	0.98527	
570.0	0.945877	0.947441	0.951644	0.957473	0.964086	0.971032	0.978136	0.985339	
571.0	0.946326	0.94786	0.951993	0.957745	0.96429	0.971182	0.978241	0.985407	
572.0	0.946761	0.948267	0.952334	0.958011	0.964491	0.97133	0.978345	0.985475	
573.0	0.947184	0.948664	0.952667	0.958273	0.964689	0.971476	0.978448	0.985541	
574.0	0.947596	0.94905	0.952994	0.95853	0.964884	0.971619	0.97855	0.985607	
575.0	0.947997	0.949428	0.953313	0.958782	0.965076	0.971761	0.978651	0.985671	
576.0	0.948389	0.949797	0.953626	0.95903	0.965265	0.971901	0.97875	0.985735	
577.0	0.948771	0.950157	0.953933	0.959274	0.965451	0.972039	0.978848	0.985799	
578.0	0.949145	0.95051	0.954234	0.959514	0.965635	0.972176	0.978945	0.985861	
579.0	0.949511	0.950856	0.954529	0.959749	0.965815	0.97231	0.97904	0.985923	
580.0	0.949869	0.951194	0.954819	0.959981	0.965994	0.972443	0.979135	0.985984	
581.0	0.95022	0.951526	0.955103	0.960209	0.966169	0.972574	0.979228	0.986044	
582.0	0.950563	0.951851	0.955382	0.960434	0.966342	0.972703	0.97932	0.986104	
583.0	0.9509	0.952169	0.955657	0.960654	0.966513	0.972831	0.979412	0.986163	
584.0	0.951229	0.952482	0.955926	0.960872	0.966682	0.972957	0.979502	0.986222	
585.0	0.951553	0.952788	0.956191	0.961086	0.966848	0.973082	0.979591	0.986279	
586.0	0.951869	0.953089	0.956451	0.961297	0.967011	0.973205	0.979679	0.986336	
587.0	0.95218	0.953384	0.956706	0.961504	0.967173	0.973327	0.979766	0.986393	
588.0	0.952486	0.953674	0.956958	0.961709	0.967332	0.973447	0.979853	0.986449	
589.0	0.952785	0.953959	0.957205	0.96191	0.96749	0.973566	0.979938	0.986504	
590.0	0.953079	0.954238	0.957448	0.962108	0.967645	0.973683	0.980022	0.986559	
591.0	0.953302	0.954449	0.957627	0.96225	0.967752	0.973761	0.980076	0.986593	
592.0	0.953476	0.954612	0.957763	0.962353	0.967826	0.973812	0.98011	0.986614	
593.0	0.953648	0.954773	0.957897	0.962455	0.967899	0.973863	0.980144	0.986635	
594.0	0.953816	0.954931	0.958028	0.962555	0.967971	0.973913	0.980177	0.986655	
595.0	0.953982	0.955086	0.958158	0.962654	0.968043	0.973963	0.980211	0.986676	
596.0	0.954144	0.955238	0.958285	0.962752	0.968114	0.974012	0.980244	0.986696	
597.0	0.954303	0.955387	0.95841	0.962848	0.968184	0.974061	0.980276	0.986716	
598.0	0.95446	0.955535	0.958533	0.962943	0.968253	0.974109	0.980309	0.986736	
599.0	0.954614	0.955679	0.958655	0.963037	0.968321	0.974158	0.980341	0.986756	
600.0	0.954765	0.955822	0.958775	0.963129	0.968389	0.974205	0.980373	0.986776	
601.0	0.954914	0.955962	0.958893	0.963221	0.968456	0.974252	0.980405	0.986795	
602.0	0.95506	0.956099	0.959009	0.963311	0.968522	0.974299	0.980436	0.986815	
603.0	0.955204	0.956235	0.959123	0.9634	0.968588	0.974346	0.980468	0.986834	
604.0	0.955346	0.956368	0.959236	0.963488	0.968653	0.974391	0.980499	0.986853	
605.0	0.955485	0.9565	0.959347	0.963575	0.968717	0.974437	0.98053	0.986872	
606.0	0.955622	0.956629	0.959457	0.963661	0.96878	0.974482	0.98056	0.986892	
607.0	0.955757	0.956756	0.959566	0.963745	0.968843	0.974527	0.980591	0.98691	
608.0	0.95589	0.956882	0.959672	0.963829	0.968906	0.974571	0.980621	0.986929	
609.0	0.956021	0.957005	0.959777	0.963912	0.968967	0.974615	0.980651	0.986948	
610.0	0.95615	0.957127	0.959881	0.963994	0.969028	0.974659	0.980681	0.986966	
611.0	0.956277	0.957247	0.959984	0.964075	0.969089	0.974702	0.980711	0.986985	
612.0	0.956402	0.957366	0.960085	0.964155	0.969148	0.974745	0.98074	0.987003	
613.0	0.956525	0.957482	0.960185	0.964234	0.969208	0.974788	0.980769	0.987021	
614.0	0.956646	0.957597	0.960284	0.964312	0.969266	0.97483	0.980798	0.98704	
615.0	0.956766	0.957711	0.960381	0.964389	0.969325	0.974872	0.980827	0.987058	
616.0	0.956884	0.957823	0.960477	0.964466	0.969382	0.974914	0.980856	0.987076	
617.0	0.957001	0.957933	0.960572	0.964541	0.969439	0.974955	0.980884	0.987093	
618.0	0.957116	0.958042	0.960666	0.964617	0.969496	0.974996	0.980912	0.987111	
619.0	0.957229	0.95815	0.960759	0.964691	0.969552	0.975037	0.980941	0.987129	
620.0	0.957346	0.958261	0.960855	0.964768	0.969611	0.97508	0.980971	0.987148	
621.0	0.957512	0.95842	0.960995	0.964884	0.969702	0.975149	0.98102	0.98718	
622.0	0.957675	0.958576	0.961133	0.964998	0.969793	0.975217	0.981068	0.987211	
623.0	0.957836	0.95873	0.961269	0.965111	0.969882	0.975285	0.981117	0.987242	
624.0	0.957994	0.958882	0.961403	0.965222	0.96997	0.975352	0.981165	0.987273	
625.0	0.95815	0.959031	0.961535	0.965332	0.970057	0.975418	0.981212	0.987304	
626.0	0.958304	0.959179	0.961666	0.965441	0.970143	0.975483	0.981259	0.987334	
627.0	0.958456	0.959324	0.961795	0.965548	0.970228	0.975548	0.981305	0.987364	
628.0	0.958605	0.959467	0.961923	0.965655	0.970313	0.975612	0.981352	0.987394	
629.0	0.958753	0.959609	0.962048	0.96576	0.970396	0.975676	0.981397	0.987423	
630.0	0.958898	0.959748	0.962172	0.965863	0.970479	0.975739	0.981443	0.987453	
631.0	0.959042	0.959886	0.962295	0.965966	0.970561	0.975801	0.981488	0.987482	
632.0	0.959183	0.960022	0.962416	0.966067	0.970642	0.975863	0.981532	0.987511	
633.0	0.959323	0.960156	0.962535	0.966167	0.970722	0.975924	0.981576	0.987539	
634.0	0.959461	0.960289	0.962654	0.966267	0.970801	0.975985	0.98162	0.987568	
635.0	0.959597	0.960419	0.96277	0.966365	0.97088	0.976045	0.981664	0.987596	
636.0	0.959731	0.960548	0.962885	0.966462	0.970957	0.976105	0.981707	0.987624	
637.0	0.959864	0.960676	0.962999	0.966557	0.971034	0.976164	0.981749	0.987652	
638.0	0.959995	0.960802	0.963112	0.966652	0.971111	0.976222	0.981792	0.987679	
639.0	0.960124	0.960926	0.963223	0.966746	0.971186	0.97628	0.981834	0.987707	
640.0	0.960252	0.961049	0.963333	0.966839	0.971261	0.976338	0.981875	0.987734	
641.0	0.960378	0.96117	0.963442	0.966931	0.971335	0.976394	0.981917	0.98776	
642.0	0.960502	0.96129	0.96355	0.967022	0.971408	0.976451	0.981958	0.987787	
643.0	0.960625	0.961409	0.963656	0.967112	0.971481	0.976507	0.981998	0.987814	
644.0	0.960747	0.961526	0.963761	0.967201	0.971553	0.976563	0.982039	0.98784	
645.0	0.960867	0.961642	0.963865	0.96729	0.971624	0.976618	0.982079	0.987866	
646.0	0.960986	0.961756	0.963968	0.967377	0.971695	0.976672	0.982118	0.987892	
647.0	0.961103	0.961869	0.96407	0.967463	0.971765	0.976726	0.982158	0.987918	
648.0	0.961219	0.961981	0.964171	0.967549	0.971834	0.97678	0.982197	0.987943	
649.0	0.961334	0.962092	0.96427	0.967634	0.971903	0.976833	0.982235	0.987968	
650.0	0.961447	0.962201	0.964369	0.967717	0.971971	0.976886	0.982274	0.987993	
651.0	0.961559	0.962309	0.964467	0.967801	0.972039	0.976938	0.982312	0.988019	
652.0	0.96167	0.962416	0.964563	0.967883	0.972106	0.97699	0.98235	0.988043	
653.0	0.961812	0.962554	0.964688	0.967992	0.972195	0.977061	0.982403	0.988078	
654.0	0.962	0.962736	0.964857	0.968139	0.972319	0.97716	0.982477	0.988127	
655.0	0.962186	0.962917	0.965023	0.968285	0.972442	0.977258	0.98255	0.988176	
656.0	0.96237	0.963095	0.965188	0.96843	0.972563	0.977355	0.982623	0.988225	
657.0	0.962551	0.963272	0.96535	0.968572	0.972683	0.977451	0.982695	0.988273	
658.0	0.96273	0.963446	0.965511	0.968713	0.972802	0.977547	0.982766	0.98832	
659.0	0.962907	0.963619	0.96567	0.968853	0.972919	0.977641	0.982837	0.988367	
660.0	0.963083	0.963789	0.965827	0.968991	0.973036	0.977734	0.982907	0.988414	
661.0	0.963256	0.963957	0.965982	0.969128	0.973151	0.977826	0.982976	0.98846	
662.0	0.963427	0.964124	0.966136	0.969263	0.973265	0.977918	0.983045	0.988506	
663.0	0.963596	0.964289	0.966288	0.969397	0.973378	0.978008	0.983113	0.988552	
664.0	0.963763	0.964451	0.966438	0.96953	0.973489	0.978098	0.98318	0.988597	
665.0	0.963929	0.964612	0.966587	0.969661	0.9736	0.978187	0.983247	0.988641	
666.0	0.964092	0.964772	0.966734	0.969791	0.973709	0.978275	0.983313	0.988685	
667.0	0.964254	0.964929	0.96688	0.969919	0.973818	0.978362	0.983378	0.988729	
668.0	0.964414	0.965085	0.967024	0.970046	0.973925	0.978448	0.983443	0.988772	
669.0	0.964572	0.965239	0.967167	0.970172	0.974031	0.978534	0.983508	0.988815	
670.0	0.964729	0.965391	0.967308	0.970297	0.974137	0.978619	0.983571	0.988858	
671.0	0.964884	0.965542	0.967447	0.97042	0.974241	0.978703	0.983634	0.9889	
672.0	0.965037	0.965691	0.967585	0.970542	0.974344	0.978786	0.983697	0.988942	
673.0	0.965188	0.965839	0.967722	0.970663	0.974446	0.978868	0.983759	0.988983	
674.0	0.965338	0.965985	0.967857	0.970783	0.974548	0.978949	0.98382	0.989024	
675.0	0.965487	0.966129	0.967991	0.970901	0.974648	0.97903	0.983881	0.989065	
676.0	0.965633	0.966272	0.968124	0.971019	0.974747	0.979111	0.983941	0.989105	
677.0	0.965779	0.966414	0.968255	0.971135	0.974846	0.97919	0.984001	0.989145	
678.0	0.965922	0.966554	0.968385	0.97125	0.974943	0.979269	0.984061	0.989185	
679.0	0.966065	0.966693	0.968513	0.971364	0.97504	0.979347	0.984119	0.989224	
680.0	0.966205	0.96683	0.968641	0.971477	0.975136	0.979424	0.984178	0.989263	
681.0	0.966345	0.966966	0.968767	0.971589	0.975231	0.9795	0.984235	0.989302	
682.0	0.966483	0.9671	0.968892	0.971699	0.975325	0.979576	0.984292	0.98934	
683.0	0.966619	0.967233	0.969016	0.971809	0.975418	0.979652	0.984349	0.989378	
684.0	0.966754	0.967365	0.969138	0.971918	0.97551	0.979726	0.984405	0.989416	
685.0	0.966888	0.967496	0.969259	0.972025	0.975601	0.9798	0.984461	0.989453	
686.0	0.967021	0.967625	0.969379	0.972132	0.975692	0.979873	0.984517	0.98949	
687.0	0.967152	0.967753	0.969498	0.972238	0.975782	0.979946	0.984571	0.989527	
688.0	0.967282	0.96788	0.969616	0.972343	0.975871	0.980018	0.984626	0.989564	
689.0	0.967401	0.967996	0.969724	0.972439	0.975952	0.980084	0.984675	0.989597	
690.0	0.967483	0.968076	0.969798	0.972503	0.976006	0.980126	0.984707	0.989618	
691.0	0.967564	0.968155	0.96987	0.972566	0.976059	0.980169	0.984739	0.989639	
692.0	0.967645	0.968233	0.969942	0.972629	0.976112	0.980211	0.98477	0.98966	
693.0	0.967725	0.96831	0.970014	0.972692	0.976165	0.980253	0.984801	0.98968	
694.0	0.967804	0.968387	0.970084	0.972754	0.976217	0.980294	0.984832	0.989701	
695.0	0.967882	0.968464	0.970155	0.972816	0.976268	0.980336	0.984863	0.989721	
696.0	0.96796	0.968539	0.970224	0.972877	0.97632	0.980376	0.984894	0.989742	
697.0	0.968037	0.968614	0.970293	0.972938	0.976371	0.980417	0.984924	0.989762	
698.0	0.968113	0.968688	0.970362	0.972998	0.976421	0.980458	0.984954	0.989782	
699.0	0.968189	0.968762	0.97043	0.973058	0.976471	0.980498	0.984984	0.989802	
700.0	0.968264	0.968835	0.970498	0.973117	0.976521	0.980538	0.985014	0.989821	
701.0	0.968339	0.968908	0.970565	0.973176	0.976571	0.980577	0.985043	0.989841	
702.0	0.968413	0.96898	0.970631	0.973235	0.97662	0.980616	0.985073	0.989861	
703.0	0.968486	0.969051	0.970697	0.973293	0.976669	0.980655	0.985102	0.98988	
704.0	0.968559	0.969122	0.970763	0.97335	0.976717	0.980694	0.985131	0.989899	
705.0	0.968631	0.969192	0.970827	0.973408	0.976765	0.980733	0.98516	0.989918	
706.0	0.968702	0.969262	0.970892	0.973464	0.976813	0.980771	0.985188	0.989937	
707.0	0.968774	0.969331	0.970956	0.973521	0.976861	0.980809	0.985217	0.989956	
708.0	0.968844	0.9694	0.971019	0.973577	0.976908	0.980847	0.985245	0.989975	
709.0	0.968914	0.969468	0.971082	0.973632	0.976955	0.980884	0.985273	0.989994	
710.0	0.968983	0.969536	0.971145	0.973688	0.977001	0.980922	0.985301	0.990013	
711.0	0.969052	0.969603	0.971207	0.973742	0.977047	0.980959	0.985329	0.990031	
712.0	0.969121	0.969669	0.971269	0.973797	0.977093	0.980995	0.985357	0.990049	
713.0	0.969188	0.969735	0.97133	0.973851	0.977139	0.981032	0.985384	0.990068	
714.0	0.969256	0.969801	0.971391	0.973904	0.977184	0.981068	0.985411	0.990086	
715.0	0.969323	0.969866	0.971451	0.973958	0.977229	0.981105	0.985438	0.990104	
716.0	0.969389	0.96993	0.971511	0.974011	0.977274	0.98114	0.985465	0.990122	
717.0	0.969455	0.969995	0.97157	0.974063	0.977318	0.981176	0.985492	0.990139	
718.0	0.96952	0.970058	0.971629	0.974115	0.977362	0.981211	0.985518	0.990157	
719.0	0.969585	0.970122	0.971688	0.974167	0.977406	0.981247	0.985545	0.990175	
720.0	0.969649	0.970184	0.971746	0.974219	0.97745	0.981282	0.985571	0.990192	
721.0	0.969713	0.970247	0.971804	0.97427	0.977493	0.981316	0.985597	0.99021	
722.0	0.969777	0.970308	0.971861	0.974321	0.977536	0.981351	0.985623	0.990227	
723.0	0.96984	0.97037	0.971918	0.974371	0.977578	0.981385	0.985649	0.990244	
724.0	0.969902	0.970431	0.971975	0.974421	0.977621	0.981419	0.985674	0.990261	
725.0	0.969964	0.970491	0.972031	0.974471	0.977663	0.981453	0.9857	0.990278	
726.0	0.970026	0.970551	0.972087	0.97452	0.977705	0.981487	0.985725	0.990295	
727.0	0.970087	0.970611	0.972142	0.974569	0.977747	0.98152	0.98575	0.990312	
728.0	0.970148	0.97067	0.972197	0.974618	0.977788	0.981554	0.985775	0.990329	
729.0	0.970208	0.970729	0.972252	0.974667	0.977829	0.981587	0.9858	0.990345	
730.0	0.97032	0.970839	0.972355	0.974759	0.977909	0.981652	0.98585	0.990379	
731.0	0.970454	0.97097	0.972478	0.97487	0.978005	0.981731	0.98591	0.990419	
732.0	0.970587	0.9711	0.9726	0.97498	0.978099	0.981808	0.985969	0.990459	
733.0	0.970718	0.971229	0.972721	0.975089	0.978193	0.981885	0.986028	0.990499	
734.0	0.970848	0.971356	0.97284	0.975197	0.978287	0.981962	0.986086	0.990538	
735.0	0.970977	0.971483	0.972959	0.975304	0.978379	0.982038	0.986144	0.990578	
736.0	0.971105	0.971608	0.973077	0.975411	0.978471	0.982113	0.986202	0.990616	
737.0	0.971232	0.971732	0.973194	0.975516	0.978562	0.982188	0.986259	0.990655	
738.0	0.971358	0.971855	0.973309	0.97562	0.978652	0.982262	0.986315	0.990693	
739.0	0.971482	0.971977	0.973424	0.975724	0.978741	0.982335	0.986371	0.990731	
740.0	0.971606	0.972098	0.973538	0.975826	0.97883	0.982408	0.986427	0.990768	
741.0	0.971728	0.972218	0.973651	0.975928	0.978918	0.98248	0.986482	0.990806	
742.0	0.971849	0.972337	0.973762	0.976029	0.979005	0.982552	0.986537	0.990843	
743.0	0.97197	0.972454	0.973873	0.976129	0.979092	0.982623	0.986591	0.990879	
744.0	0.972089	0.972571	0.973983	0.976228	0.979177	0.982693	0.986645	0.990916	
745.0	0.972207	0.972687	0.974092	0.976326	0.979263	0.982763	0.986698	0.990952	
746.0	0.972324	0.972802	0.9742	0.976424	0.979347	0.982832	0.986751	0.990988	
747.0	0.97244	0.972916	0.974307	0.976521	0.979431	0.982901	0.986804	0.991023	
748.0	0.972556	0.973029	0.974413	0.976617	0.979514	0.982969	0.986856	0.991058	
749.0	0.97267	0.973141	0.974519	0.976712	0.979596	0.983037	0.986908	0.991093	
750.0	0.972783	0.973252	0.974623	0.976806	0.979678	0.983104	0.986959	0.991128	
751.0	0.972895	0.973362	0.974727	0.9769	0.979759	0.983171	0.98701	0.991163	
752.0	0.973007	0.973471	0.974829	0.976993	0.979839	0.983237	0.987061	0.991197	
753.0	0.973117	0.973579	0.974931	0.977085	0.979919	0.983302	0.987111	0.991231	
754.0	0.973227	0.973687	0.975032	0.977176	0.979998	0.983368	0.987161	0.991264	
755.0	0.973336	0.973793	0.975133	0.977267	0.980077	0.983432	0.98721	0.991298	
756.0	0.973444	0.973899	0.975232	0.977357	0.980155	0.983496	0.987259	0.991331	
757.0	0.97355	0.974003	0.975331	0.977446	0.980232	0.98356	0.987308	0.991364	
758.0	0.973656	0.974107	0.975429	0.977535	0.980308	0.983623	0.987356	0.991396	
759.0	0.973762	0.974211	0.975526	0.977623	0.980385	0.983685	0.987404	0.991429	
760.0	0.973866	0.974313	0.975622	0.97771	0.98046	0.983747	0.987451	0.991461	
761.0	0.973969	0.974414	0.975718	0.977796	0.980535	0.983809	0.987499	0.991493	
762.0	0.974072	0.974515	0.975813	0.977882	0.980609	0.98387	0.987545	0.991525	
763.0	0.974174	0.974615	0.975907	0.977967	0.980683	0.983931	0.987592	0.991556	
764.0	0.974275	0.974714	0.976	0.978052	0.980756	0.983991	0.987638	0.991587	
765.0	0.974375	0.974812	0.976093	0.978136	0.980829	0.984051	0.987684	0.991618	
766.0	0.974475	0.97491	0.976184	0.978219	0.980901	0.984111	0.987729	0.991649	
767.0	0.974573	0.975006	0.976276	0.978301	0.980973	0.98417	0.987774	0.99168	
768.0	0.974671	0.975102	0.976366	0.978383	0.981044	0.984228	0.987819	0.99171	
769.0	0.974768	0.975198	0.976456	0.978465	0.981114	0.984286	0.987864	0.99174	
770.0	0.974865	0.975292	0.976545	0.978545	0.981184	0.984344	0.987908	0.99177	
771.0	0.97496	0.975386	0.976633	0.978625	0.981254	0.984401	0.987952	0.991799	
772.0	0.975055	0.975479	0.976721	0.978705	0.981323	0.984458	0.987995	0.991829	
773.0	0.975149	0.975571	0.976808	0.978784	0.981391	0.984514	0.988038	0.991858	
774.0	0.975243	0.975663	0.976894	0.978862	0.981459	0.98457	0.988081	0.991887	
775.0	0.975335	0.975753	0.976979	0.978939	0.981526	0.984625	0.988123	0.991916	
776.0	0.975415	0.975832	0.977053	0.979006	0.981584	0.984673	0.98816	0.99194	
777.0	0.975495	0.97591	0.977127	0.979072	0.981641	0.98472	0.988196	0.991965	
778.0	0.975574	0.975987	0.9772	0.979138	0.981698	0.984766	0.988231	0.991989	
779.0	0.975653	0.976064	0.977273	0.979204	0.981755	0.984813	0.988267	0.992013	
780.0	0.97573	0.976141	0.977344	0.979268	0.981811	0.984859	0.988302	0.992036	
781.0	0.975808	0.976216	0.977416	0.979333	0.981867	0.984905	0.988337	0.99206	
782.0	0.975884	0.976292	0.977487	0.979397	0.981922	0.98495	0.988372	0.992084	
783.0	0.975961	0.976366	0.977557	0.97946	0.981977	0.984996	0.988406	0.992107	
784.0	0.976036	0.97644	0.977626	0.979523	0.982032	0.98504	0.988441	0.99213	
785.0	0.976111	0.976514	0.977696	0.979586	0.982086	0.985085	0.988475	0.992153	
786.0	0.976186	0.976587	0.977764	0.979648	0.982139	0.985129	0.988508	0.992176	
787.0	0.976259	0.976659	0.977832	0.97971	0.982193	0.985173	0.988542	0.992198	
788.0	0.976332	0.976731	0.9779	0.979771	0.982246	0.985216	0.988575	0.992221	
789.0	0.976405	0.976802	0.977967	0.979831	0.982298	0.98526	0.988608	0.992243	
790.0	0.976477	0.976873	0.978034	0.979892	0.98235	0.985302	0.988641	0.992265	
791.0	0.976549	0.976943	0.9781	0.979951	0.982402	0.985345	0.988674	0.992287	
792.0	0.97662	0.977012	0.978165	0.980011	0.982454	0.985387	0.988706	0.992309	
793.0	0.97669	0.977081	0.97823	0.98007	0.982505	0.985429	0.988738	0.992331	
794.0	0.97676	0.97715	0.978295	0.980128	0.982555	0.985471	0.98877	0.992352	
795.0	0.97683	0.977218	0.978359	0.980186	0.982606	0.985512	0.988802	0.992374	
796.0	0.976899	0.977286	0.978423	0.980244	0.982656	0.985553	0.988833	0.992395	
797.0	0.976967	0.977353	0.978486	0.980301	0.982705	0.985594	0.988864	0.992416	
798.0	0.977035	0.977419	0.978549	0.980358	0.982754	0.985635	0.988895	0.992437	
799.0	0.977102	0.977485	0.978611	0.980414	0.982803	0.985675	0.988926	0.992458	
800.0	0.977169	0.977551	0.978673	0.98047	0.982852	0.985715	0.988957	0.992479	
801.0	0.977236	0.977616	0.978734	0.980526	0.9829	0.985755	0.988987	0.992499	
802.0	0.977302	0.977681	0.978795	0.980581	0.982948	0.985794	0.989017	0.99252	
803.0	0.977367	0.977745	0.978856	0.980636	0.982995	0.985833	0.989047	0.99254	
804.0	0.977432	0.977809	0.978916	0.98069	0.983043	0.985872	0.989077	0.99256	
805.0	0.977497	0.977872	0.978975	0.980744	0.98309	0.985911	0.989106	0.99258	
806.0	0.977561	0.977935	0.979035	0.980798	0.983136	0.985949	0.989136	0.9926	
807.0	0.977624	0.977997	0.979094	0.980851	0.983182	0.985987	0.989165	0.99262	
808.0	0.977687	0.978059	0.979152	0.980904	0.983228	0.986025	0.989194	0.992639	
809.0	0.97775	0.978121	0.97921	0.980957	0.983274	0.986062	0.989223	0.992659	
810.0	0.977812	0.978182	0.979267	0.981009	0.983319	0.9861	0.989251	0.992678	
811.0	0.977874	0.978242	0.979325	0.981061	0.983364	0.986137	0.98928	0.992697	
812.0	0.977936	0.978303	0.979382	0.981112	0.983409	0.986174	0.989308	0.992716	
813.0	0.977997	0.978362	0.979438	0.981164	0.983453	0.98621	0.989336	0.992735	
814.0	0.978057	0.978422	0.979494	0.981214	0.983497	0.986247	0.989364	0.992754	
815.0	0.978117	0.978481	0.97955	0.981265	0.983541	0.986283	0.989391	0.992773	
816.0	0.978177	0.978539	0.979605	0.981315	0.983585	0.986319	0.989419	0.992791	
817.0	0.978236	0.978598	0.97966	0.981365	0.983628	0.986354	0.989446	0.99281	
818.0	0.978295	0.978655	0.979714	0.981414	0.983671	0.98639	0.989473	0.992828	
819.0	0.978354	0.978713	0.979768	0.981463	0.983714	0.986425	0.9895	0.992846	
820.0	0.978412	0.97877	0.979822	0.981512	0.983756	0.98646	0.989527	0.992864	
821.0	0.97847	0.978826	0.979876	0.98156	0.983798	0.986494	0.989554	0.992883	
822.0	0.978527	0.978882	0.979929	0.981609	0.98384	0.986529	0.98958	0.9929	
823.0	0.978584	0.978938	0.979982	0.981656	0.983881	0.986563	0.989606	0.992918	
824.0	0.97864	0.978994	0.980034	0.981704	0.983923	0.986597	0.989632	0.992936	
825.0	0.978696	0.979049	0.980086	0.981751	0.983964	0.986631	0.989658	0.992953	
826.0	0.978752	0.979104	0.980138	0.981798	0.984004	0.986665	0.989684	0.992971	
827.0	0.978793	0.979143	0.980175	0.981832	0.984034	0.986689	0.989702	0.992983	
828.0	0.978811	0.979161	0.980191	0.981846	0.984046	0.986699	0.98971	0.992988	
829.0	0.978829	0.979179	0.980208	0.981861	0.984058	0.986708	0.989717	0.992993	
830.0	0.978847	0.979196	0.980224	0.981875	0.98407	0.986718	0.989724	0.992998	
831.0	0.978865	0.979214	0.98024	0.98189	0.984083	0.986728	0.989732	0.993002	
832.0	0.978883	0.979231	0.980257	0.981904	0.984095	0.986737	0.989739	0.993007	
833.0	0.978901	0.979249	0.980273	0.981918	0.984107	0.986747	0.989746	0.993012	
834.0	0.978919	0.979266	0.980289	0.981933	0.984119	0.986757	0.989753	0.993017	
835.0	0.978936	0.979283	0.980305	0.981947	0.984131	0.986767	0.989761	0.993022	
836.0	0.978954	0.979301	0.980321	0.981961	0.984143	0.986776	0.989768	0.993027	
837.0	0.978972	0.979318	0.980337	0.981976	0.984155	0.986786	0.989775	0.993031	
838.0	0.978989	0.979335	0.980353	0.98199	0.984167	0.986796	0.989782	0.993036	
839.0	0.979007	0.979352	0.980369	0.982004	0.984179	0.986805	0.98979	0.993041	
840.0	0.979025	0.979369	0.980385	0.982018	0.984191	0.986815	0.989797	0.993046	
841.0	0.979042	0.979387	0.980401	0.982032	0.984203	0.986825	0.989804	0.993051	
842.0	0.97906	0.979404	0.980417	0.982047	0.984215	0.986834	0.989811	0.993055	
843.0	0.979077	0.979421	0.980433	0.982061	0.984227	0.986844	0.989818	0.99306	
844.0	0.979094	0.979438	0.980449	0.982075	0.984239	0.986853	0.989825	0.993065	
845.0	0.979112	0.979455	0.980465	0.982089	0.984251	0.986863	0.989833	0.99307	
846.0	0.979129	0.979472	0.98048	0.982103	0.984263	0.986873	0.98984	0.993074	
847.0	0.979146	0.979488	0.980496	0.982117	0.984275	0.986882	0.989847	0.993079	
848.0	0.979164	0.979505	0.980512	0.982131	0.984287	0.986892	0.989854	0.993084	
849.0	0.979181	0.979522	0.980527	0.982145	0.984299	0.986901	0.989861	0.993089	
850.0	0.979198	0.979539	0.980543	0.982159	0.98431	0.986911	0.989868	0.993094	
851.0	0.979215	0.979555	0.980558	0.982172	0.984322	0.98692	0.989876	0.993098	
852.0	0.979232	0.979572	0.980574	0.982186	0.984334	0.98693	0.989883	0.993103	
853.0	0.979249	0.979589	0.98059	0.9822	0.984346	0.986939	0.98989	0.993108	
854.0	0.979266	0.979605	0.980605	0.982214	0.984357	0.986949	0.989897	0.993112	
855.0	0.979283	0.979622	0.98062	0.982228	0.984369	0.986958	0.989904	0.993117	
856.0	0.9793	0.979638	0.980636	0.982241	0.984381	0.986968	0.989911	0.993122	
857.0	0.979317	0.979655	0.980651	0.982255	0.984392	0.986977	0.989918	0.993127	
858.0	0.979334	0.979671	0.980667	0.982269	0.984404	0.986986	0.989925	0.993131	
859.0	0.97935	0.979688	0.980682	0.982282	0.984416	0.986996	0.989932	0.993136	
860.0	0.979367	0.979704	0.980697	0.982296	0.984427	0.987005	0.989939	0.993141	
861.0	0.979384	0.97972	0.980712	0.98231	0.984439	0.987015	0.989946	0.993146	
862.0	0.9794	0.979737	0.980727	0.982323	0.98445	0.987024	0.989953	0.99315	
863.0	0.979417	0.979753	0.980743	0.982337	0.984462	0.987033	0.98996	0.993155	
864.0	0.979433	0.979769	0.980758	0.98235	0.984474	0.987042	0.989967	0.99316	
865.0	0.97945	0.979785	0.980773	0.982364	0.984485	0.987052	0.989974	0.993164	
866.0	0.979467	0.979801	0.980788	0.982377	0.984496	0.987061	0.989982	0.993169	
867.0	0.979483	0.979817	0.980803	0.982391	0.984508	0.98707	0.989989	0.993173	
868.0	0.9795	0.979833	0.980818	0.982404	0.98452	0.98708	0.989995	0.993178	
869.0	0.979516	0.97985	0.980833	0.982417	0.984531	0.987089	0.990002	0.993183	
870.0	0.979532	0.979865	0.980848	0.982431	0.984542	0.987098	0.990009	0.993187	
871.0	0.979548	0.979881	0.980863	0.982444	0.984554	0.987107	0.990016	0.993192	
872.0	0.979565	0.979897	0.980878	0.982457	0.984565	0.987116	0.990023	0.993197	
873.0	0.979581	0.979913	0.980892	0.982471	0.984576	0.987126	0.99003	0.993201	
874.0	0.979597	0.979929	0.980907	0.982484	0.984588	0.987135	0.990037	0.993206	
875.0	0.979613	0.979945	0.980922	0.982497	0.984599	0.987144	0.990044	0.993211	
876.0	0.979629	0.97996	0.980937	0.98251	0.98461	0.987153	0.990051	0.993215	
877.0	0.979645	0.979976	0.980952	0.982523	0.984621	0.987162	0.990058	0.99322	
878.0	0.979661	0.979992	0.980966	0.982537	0.984633	0.987171	0.990065	0.993224	
879.0	0.979677	0.980007	0.980981	0.98255	0.984644	0.987181	0.990072	0.993229	
880.0	0.979693	0.980023	0.980995	0.982563	0.984655	0.98719	0.990078	0.993234	
881.0	0.979709	0.980039	0.98101	0.982576	0.984666	0.987199	0.990085	0.993238	
882.0	0.979725	0.980054	0.981024	0.982589	0.984677	0.987208	0.990092	0.993243	
883.0	0.979741	0.98007	0.981039	0.982602	0.984689	0.987217	0.990099	0.993247	
884.0	0.979757	0.980085	0.981053	0.982615	0.9847	0.987226	0.990106	0.993252	
885.0	0.979772	0.9801	0.981068	0.982628	0.984711	0.987235	0.990113	0.993256	
886.0	0.979776	0.980103	0.981071	0.98263	0.984712	0.987236	0.990113	0.993257	
887.0	0.97976	0.980088	0.981055	0.982616	0.984699	0.987225	0.990104	0.993251	
888.0	0.979744	0.980073	0.981041	0.982602	0.984687	0.987214	0.990096	0.993245	
889.0	0.979729	0.980057	0.981026	0.982588	0.984674	0.987203	0.990087	0.993239	
890.0	0.979714	0.980042	0.981012	0.982574	0.984662	0.987193	0.990079	0.993233	
891.0	0.979699	0.980028	0.980997	0.982561	0.98465	0.987183	0.990071	0.993227	
892.0	0.979684	0.980013	0.980983	0.982548	0.984638	0.987172	0.990063	0.993222	
893.0	0.97967	0.979999	0.980969	0.982535	0.984626	0.987162	0.990055	0.993216	
894.0	0.979656	0.979985	0.980956	0.982522	0.984615	0.987152	0.990047	0.993211	
895.0	0.979641	0.979971	0.980942	0.982509	0.984603	0.987142	0.990039	0.993205	
896.0	0.979628	0.979957	0.980929	0.982497	0.984592	0.987132	0.990031	0.9932	
897.0	0.979614	0.979943	0.980915	0.982484	0.98458	0.987123	0.990024	0.993194	
898.0	0.9796	0.97993	0.980902	0.982472	0.984569	0.987113	0.990016	0.993189	
899.0	0.979587	0.979916	0.98089	0.98246	0.984558	0.987104	0.990009	0.993184	
900.0	0.979573	0.979903	0.980877	0.982448	0.984548	0.987095	0.990001	0.993179	
901.0	0.97956	0.97989	0.980864	0.982436	0.984537	0.987085	0.989994	0.993174	
902.0	0.979547	0.979878	0.980852	0.982424	0.984526	0.987076	0.989987	0.993169	
903.0	0.979535	0.979865	0.98084	0.982413	0.984516	0.987067	0.98998	0.993164	
904.0	0.979522	0.979853	0.980828	0.982401	0.984506	0.987058	0.989973	0.993159	
905.0	0.97951	0.97984	0.980816	0.98239	0.984495	0.98705	0.989966	0.993154	
906.0	0.979497	0.979828	0.980804	0.982379	0.984485	0.987041	0.989959	0.993149	
907.0	0.979485	0.979816	0.980793	0.982368	0.984475	0.987033	0.989952	0.993145	
908.0	0.979474	0.979804	0.980781	0.982358	0.984466	0.987024	0.989945	0.99314	
909.0	0.979462	0.979793	0.98077	0.982347	0.984456	0.987016	0.989939	0.993135	
910.0	0.97945	0.979781	0.980759	0.982336	0.984447	0.987008	0.989932	0.993131	
911.0	0.979439	0.97977	0.980748	0.982326	0.984437	0.987	0.989926	0.993127	
912.0	0.979428	0.979759	0.980737	0.982316	0.984428	0.986992	0.989919	0.993122	
913.0	0.979416	0.979748	0.980726	0.982306	0.984419	0.986984	0.989913	0.993118	
914.0	0.979405	0.979737	0.980716	0.982296	0.98441	0.986976	0.989907	0.993113	
915.0	0.979394	0.979726	0.980705	0.982286	0.984401	0.986968	0.989901	0.993109	
916.0	0.979384	0.979716	0.980695	0.982276	0.984392	0.986961	0.989895	0.993105	
917.0	0.979373	0.979705	0.980685	0.982267	0.984383	0.986953	0.989889	0.993101	
918.0	0.979363	0.979695	0.980675	0.982257	0.984375	0.986946	0.989883	0.993097	
919.0	0.979353	0.979685	0.980665	0.982248	0.984366	0.986938	0.989877	0.993093	
920.0	0.979342	0.979675	0.980655	0.982239	0.984358	0.986931	0.989871	0.993088	
921.0	0.979333	0.979665	0.980645	0.98223	0.984349	0.986924	0.989866	0.993085	
922.0	0.979323	0.979655	0.980636	0.982221	0.984341	0.986917	0.98986	0.993081	
923.0	0.979313	0.979645	0.980627	0.982212	0.984333	0.98691	0.989855	0.993077	
924.0	0.979303	0.979636	0.980617	0.982203	0.984325	0.986903	0.989849	0.993073	
925.0	0.979294	0.979627	0.980608	0.982195	0.984318	0.986896	0.989844	0.993069	
926.0	0.979285	0.979617	0.980599	0.982186	0.98431	0.98689	0.989838	0.993065	
927.0	0.979276	0.979608	0.980591	0.982178	0.984302	0.986883	0.989833	0.993062	
928.0	0.979267	0.979599	0.980582	0.98217	0.984295	0.986877	0.989828	0.993058	
929.0	0.979258	0.97959	0.980573	0.982161	0.984287	0.98687	0.989823	0.993055	
930.0	0.979249	0.979582	0.980565	0.982153	0.98428	0.986864	0.989818	0.993051	
931.0	0.97924	0.979573	0.980557	0.982145	0.984273	0.986858	0.989813	0.993048	
932.0	0.979232	0.979565	0.980548	0.982138	0.984266	0.986852	0.989808	0.993044	
933.0	0.979223	0.979556	0.98054	0.98213	0.984259	0.986846	0.989803	0.993041	
934.0	0.979215	0.979548	0.980532	0.982122	0.984252	0.98684	0.989798	0.993038	
935.0	0.979207	0.97954	0.980524	0.982115	0.984245	0.986834	0.989793	0.993034	
936.0	0.979199	0.979532	0.980517	0.982107	0.984238	0.986828	0.989789	0.993031	
937.0	0.979191	0.979524	0.980509	0.9821	0.984232	0.986822	0.989784	0.993028	
938.0	0.979183	0.979517	0.980501	0.982093	0.984225	0.986816	0.98978	0.993025	
939.0	0.979175	0.979509	0.980494	0.982086	0.984219	0.986811	0.989775	0.993021	
940.0	0.979168	0.979501	0.980487	0.982079	0.984212	0.986805	0.989771	0.993018	
941.0	0.97916	0.979494	0.98048	0.982072	0.984206	0.9868	0.989766	0.993015	
942.0	0.979153	0.979487	0.980472	0.982066	0.9842	0.986795	0.989762	0.993012	
943.0	0.979146	0.97948	0.980465	0.982059	0.984194	0.986789	0.989758	0.993009	
944.0	0.979139	0.979473	0.980458	0.982052	0.984188	0.986784	0.989754	0.993006	
945.0	0.979132	0.979466	0.980452	0.982046	0.984182	0.986779	0.98975	0.993004	
946.0	0.979125	0.979459	0.980445	0.98204	0.984176	0.986774	0.989745	0.993001	
947.0	0.979118	0.979452	0.980439	0.982033	0.98417	0.986769	0.989742	0.992998	
948.0	0.979111	0.979445	0.980432	0.982027	0.984164	0.986764	0.989738	0.992995	
949.0	0.979105	0.979439	0.980426	0.982021	0.984159	0.986759	0.989734	0.992992	
950.0	0.979098	0.979432	0.980419	0.982015	0.984153	0.986754	0.98973	0.99299	
951.0	0.979092	0.979426	0.980413	0.982009	0.984148	0.98675	0.989726	0.992987	
952.0	0.979086	0.97942	0.980407	0.982003	0.984143	0.986745	0.989722	0.992984	
953.0	0.97908	0.979414	0.980401	0.981998	0.984137	0.98674	0.989719	0.992982	
954.0	0.979078	0.979412	0.9804	0.981996	0.984136	0.986739	0.989717	0.992981	
955.0	0.979088	0.979422	0.980409	0.982004	0.984143	0.986744	0.989722	0.992984	
956.0	0.979098	0.979432	0.980418	0.982012	0.98415	0.98675	0.989726	0.992986	
957.0	0.979108	0.979441	0.980426	0.98202	0.984156	0.986755	0.98973	0.992989	
958.0	0.979117	0.979451	0.980435	0.982028	0.984163	0.986761	0.989734	0.992992	
959.0	0.979127	0.97946	0.980444	0.982036	0.98417	0.986767	0.989738	0.992995	
960.0	0.979137	0.97947	0.980453	0.982044	0.984177	0.986772	0.989742	0.992998	
961.0	0.979147	0.979479	0.980462	0.982052	0.984184	0.986778	0.989747	0.993	
962.0	0.979157	0.979489	0.980471	0.98206	0.984191	0.986783	0.989751	0.993003	
963.0	0.979166	0.979499	0.98048	0.982068	0.984198	0.986789	0.989755	0.993006	
964.0	0.979176	0.979508	0.980489	0.982076	0.984204	0.986794	0.989759	0.993009	
965.0	0.979186	0.979518	0.980498	0.982084	0.984211	0.9868	0.989763	0.993012	
966.0	0.979196	0.979528	0.980507	0.982092	0.984218	0.986806	0.989768	0.993015	
967.0	0.979206	0.979537	0.980516	0.9821	0.984225	0.986811	0.989772	0.993017	
968.0	0.979216	0.979547	0.980526	0.982109	0.984232	0.986817	0.989776	0.99302	
969.0	0.979226	0.979557	0.980534	0.982117	0.984239	0.986823	0.98978	0.993023	
970.0	0.979235	0.979566	0.980543	0.982125	0.984246	0.986828	0.989785	0.993026	
971.0	0.979245	0.979576	0.980552	0.982133	0.984253	0.986834	0.989789	0.993029	
972.0	0.979255	0.979585	0.980562	0.982141	0.98426	0.986839	0.989793	0.993032	
973.0	0.979265	0.979595	0.980571	0.982149	0.984267	0.986845	0.989797	0.993034	
974.0	0.979275	0.979605	0.98058	0.982157	0.984274	0.986851	0.989802	0.993037	
975.0	0.979285	0.979614	0.980589	0.982165	0.984281	0.986856	0.989806	0.99304	
976.0	0.979294	0.979624	0.980598	0.982174	0.984288	0.986862	0.98981	0.993043	
977.0	0.979304	0.979634	0.980607	0.982182	0.984295	0.986868	0.989814	0.993046	
978.0	0.979314	0.979643	0.980616	0.98219	0.984302	0.986873	0.989819	0.993049	
979.0	0.979324	0.979653	0.980625	0.982198	0.984308	0.986879	0.989823	0.993052	
980.0	0.979334	0.979662	0.980634	0.982206	0.984316	0.986885	0.989827	0.993054	
981.0	0.979344	0.979672	0.980643	0.982214	0.984323	0.98689	0.989832	0.993057	
982.0	0.979354	0.979682	0.980652	0.982222	0.98433	0.986896	0.989836	0.99306	
983.0	0.979363	0.979691	0.980661	0.98223	0.984336	0.986902	0.98984	0.993063	
984.0	0.979373	0.979701	0.98067	0.982239	0.984343	0.986907	0.989844	0.993066	
985.0	0.979383	0.979711	0.980679	0.982247	0.984351	0.986913	0.989849	0.993069	
986.0	0.979393	0.97972	0.980688	0.982255	0.984357	0.986919	0.989853	0.993072	
987.0	0.979403	0.97973	0.980697	0.982263	0.984364	0.986924	0.989857	0.993075	
988.0	0.979413	0.97974	0.980706	0.982271	0.984371	0.98693	0.989862	0.993077	
989.0	0.979422	0.979749	0.980715	0.982279	0.984378	0.986936	0.989866	0.99308	
990.0	0.979432	0.979759	0.980724	0.982287	0.984385	0.986941	0.98987	0.993083	
991.0	0.979442	0.979769	0.980733	0.982296	0.984392	0.986947	0.989875	0.993086	
992.0	0.979452	0.979778	0.980743	0.982304	0.984399	0.986953	0.989879	0.993089	
993.0	0.979462	0.979788	0.980751	0.982312	0.984406	0.986959	0.989883	0.993092	
994.0	0.979472	0.979798	0.980761	0.98232	0.984414	0.986964	0.989888	0.993095	
995.0	0.979482	0.979807	0.98077	0.982328	0.98442	0.98697	0.989892	0.993098	
996.0	0.979491	0.979817	0.980779	0.982336	0.984428	0.986976	0.989896	0.993101	
997.0	0.979501	0.979826	0.980788	0.982344	0.984434	0.986982	0.989901	0.993104	
998.0	0.979511	0.979836	0.980797	0.982352	0.984442	0.986987	0.989905	0.993106	
999.0	0.979521	0.979846	0.980806	0.982361	0.984449	0.986993	0.989909	0.993109	
1000.0	0.979531	0.979855	0.980815	0.982369	0.984455	0.986999	0.989914	0.993112	
