wavelength	0.0	10.0	20.0	30.0	40.0	50.0	60.0	70.0
251.0	0.289546	0.295171	0.312408	0.342555	0.3882	0.453137	0.541851	0.659116	
252.0	0.289184	0.294765	0.311886	0.341895	0.387434	0.452335	0.541095	0.658495	
253.0	0.288798	0.294334	0.311339	0.34121	0.386647	0.451517	0.540329	0.657868	
254.0	0.288373	0.293863	0.31075	0.340483	0.385821	0.450667	0.539541	0.657231	
255.0	0.287893	0.293336	0.310104	0.339703	0.384951	0.449787	0.538737	0.656589	
256.0	0.287332	0.292729	0.309382	0.338857	0.384033	0.448877	0.537921	0.655951	
257.0	0.286672	0.292025	0.308573	0.337942	0.383068	0.447946	0.537106	0.655327	
258.0	0.285904	0.291218	0.307676	0.336963	0.38207	0.447008	0.536306	0.654733	
259.0	0.284972	0.290255	0.306642	0.335877	0.380991	0.446013	0.535469	0.654119	
260.0	0.283942	0.289202	0.305542	0.334752	0.379902	0.445029	0.534657	0.653538	
261.0	0.282877	0.28812	0.304432	0.333643	0.37885	0.444099	0.53391	0.653022	
262.0	0.2818	0.287034	0.303334	0.332565	0.377848	0.443229	0.53323	0.652571	
263.0	0.280732	0.285961	0.302263	0.33153	0.376899	0.442423	0.532618	0.652184	
264.0	0.279509	0.284737	0.301045	0.330351	0.375809	0.44148	0.531885	0.651704	
265.0	0.277614	0.282835	0.299135	0.328457	0.373984	0.439805	0.530469	0.65066	
266.0	0.275753	0.28097	0.297267	0.326611	0.372212	0.438189	0.529116	0.649677	
267.0	0.27393	0.279144	0.295442	0.324814	0.370495	0.436632	0.527827	0.648754	
268.0	0.272146	0.277359	0.293663	0.323067	0.368831	0.435135	0.526602	0.647889	
269.0	0.270403	0.275616	0.291929	0.321369	0.367222	0.433697	0.525439	0.647081	
270.0	0.268696	0.27391	0.290232	0.31971	0.365653	0.432302	0.524319	0.646309	
271.0	0.267025	0.27224	0.288574	0.318091	0.364125	0.430948	0.523242	0.645571	
272.0	0.265397	0.270615	0.286963	0.316521	0.362649	0.429653	0.522224	0.644883	
273.0	0.263813	0.269034	0.285397	0.314999	0.361227	0.428416	0.521264	0.644241	
274.0	0.262272	0.267496	0.283876	0.313526	0.359857	0.427235	0.52036	0.643642	
275.0	0.260772	0.266001	0.2824	0.3121	0.358539	0.426111	0.519511	0.643083	
276.0	0.258758	0.263986	0.280389	0.310121	0.356659	0.424436	0.518155	0.642102	
277.0	0.256225	0.261446	0.277839	0.307586	0.354214	0.422208	0.516289	0.640695	
278.0	0.253731	0.258946	0.27533	0.305095	0.351816	0.42003	0.514466	0.639315	
279.0	0.251276	0.256485	0.272862	0.302648	0.349465	0.4179	0.512685	0.637957	
280.0	0.24886	0.254064	0.270434	0.300243	0.34716	0.415818	0.510945	0.636621	
281.0	0.246483	0.251682	0.268048	0.297882	0.344902	0.413784	0.509242	0.635303	
282.0	0.244013	0.249207	0.265567	0.295427	0.342555	0.411666	0.507462	0.633912	
283.0	0.241051	0.246236	0.262582	0.292463	0.339704	0.409073	0.505253	0.632167	
284.0	0.238114	0.24329	0.259624	0.289528	0.336888	0.406514	0.50307	0.63043	
285.0	0.235204	0.240372	0.256695	0.286625	0.334107	0.403993	0.500915	0.628702	
286.0	0.23232	0.23748	0.253795	0.283756	0.331365	0.401511	0.49879	0.626985	
287.0	0.229464	0.234618	0.250926	0.280923	0.328664	0.399072	0.496696	0.62528	
288.0	0.226638	0.231786	0.248091	0.278127	0.326006	0.396677	0.494636	0.623587	
289.0	0.223025	0.22816	0.244444	0.274505	0.322523	0.393485	0.491842	0.621281	
290.0	0.219078	0.224198	0.240456	0.270536	0.318696	0.389961	0.488734	0.618697	
291.0	0.215149	0.220255	0.236491	0.266596	0.314902	0.386469	0.485642	0.616105	
292.0	0.211244	0.216337	0.232553	0.262689	0.311148	0.383015	0.482569	0.613502	
293.0	0.207368	0.212448	0.228649	0.258822	0.307442	0.379605	0.479515	0.61089	
294.0	0.203526	0.208596	0.224786	0.255004	0.30379	0.376243	0.476483	0.608264	
295.0	0.199725	0.204787	0.22097	0.251242	0.300199	0.372933	0.473472	0.605623	
296.0	0.194461	0.199499	0.215636	0.245911	0.295011	0.368041	0.468962	0.601697	
297.0	0.188853	0.193862	0.209942	0.240209	0.289436	0.362744	0.464031	0.597368	
298.0	0.183288	0.188269	0.204292	0.23455	0.283895	0.357449	0.459047	0.592942	
299.0	0.177519	0.182473	0.198444	0.2287	0.278168	0.351952	0.453823	0.588253	
300.0	0.170709	0.175639	0.191572	0.221857	0.271492	0.345537	0.447687	0.582705	
301.0	0.163872	0.168776	0.184662	0.214959	0.26472	0.338951	0.441285	0.576838	
302.0	0.157021	0.161896	0.177725	0.208009	0.257845	0.332172	0.434584	0.570617	
303.0	0.150166	0.155029	0.17085	0.201187	0.251143	0.325528	0.427889	0.564258	
304.0	0.143242	0.148102	0.163939	0.194353	0.244413	0.318766	0.42092	0.557509	
305.0	0.136231	0.141081	0.156908	0.187339	0.237395	0.311552	0.413336	0.550085	
306.0	0.129126	0.133956	0.149736	0.180109	0.230026	0.303802	0.405044	0.541892	
307.0	0.122507	0.127348	0.143168	0.173589	0.22341	0.2967	0.397146	0.533819	
308.0	0.115842	0.120686	0.136517	0.16691	0.21649	0.289082	0.388526	0.524935	
309.0	0.109042	0.113874	0.129658	0.159911	0.209067	0.280727	0.378965	0.515045	
310.0	0.102079	0.106878	0.122551	0.152537	0.201071	0.271559	0.368384	0.504067	
311.0	0.09324	0.098021	0.113618	0.143356	0.191177	0.260193	0.355138	0.490137	
312.0	0.087369	0.092188	0.107864	0.137551	0.184819	0.252414	0.345394	0.479384	
313.0	0.084857	0.089788	0.10574	0.135635	0.182577	0.248881	0.339919	0.472682	
314.0	0.083319	0.0884	0.104729	0.134936	0.181573	0.24648	0.335413	0.466812	
315.0	0.086079	0.091536	0.108851	0.140144	0.187038	0.250586	0.336989	0.466363	
316.0	0.092151	0.09801	0.116345	0.148659	0.195583	0.257516	0.341405	0.468961	
317.0	0.100326	0.10654	0.12573	0.158738	0.205269	0.265359	0.347019	0.473315	
318.0	0.111715	0.118313	0.138382	0.171966	0.217784	0.275735	0.355269	0.480646	
319.0	0.135191	0.142355	0.163673	0.197963	0.242674	0.297984	0.375566	0.500227	
320.0	0.157537	0.164991	0.18677	0.220683	0.263504	0.316433	0.393339	0.518441	
321.0	0.17553	0.183023	0.204609	0.237457	0.278266	0.329655	0.407179	0.533515	
322.0	0.194594	0.202008	0.223082	0.254519	0.293323	0.343837	0.42288	0.550629	
323.0	0.21996	0.227173	0.24739	0.277011	0.313783	0.364147	0.445607	0.574435	
324.0	0.243594	0.25045	0.269489	0.297207	0.332522	0.38382	0.468274	0.597709	
325.0	0.260605	0.267055	0.284911	0.311094	0.345827	0.398929	0.486407	0.616109	
326.0	0.277841	0.283853	0.300532	0.325448	0.36025	0.415788	0.506187	0.635373	
327.0	0.298821	0.304358	0.319859	0.343792	0.37932	0.43784	0.530796	0.658156	
328.0	0.321597	0.326685	0.341174	0.364588	0.401513	0.463238	0.557984	0.682249	
329.0	0.344663	0.349389	0.363174	0.386631	0.425492	0.49027	0.585805	0.70595	
330.0	0.368037	0.372523	0.385971	0.410012	0.451144	0.518526	0.613757	0.728921	
331.0	0.393149	0.39754	0.411058	0.436193	0.479741	0.549002	0.642655	0.751839	
332.0	0.420402	0.424852	0.438842	0.465467	0.511292	0.581423	0.672164	0.774482	
333.0	0.440009	0.444657	0.45943	0.487685	0.535352	0.605626	0.693488	0.790371	
334.0	0.454751	0.459666	0.475349	0.505171	0.55424	0.624201	0.709397	0.801944	
335.0	0.469735	0.47494	0.491541	0.522758	0.572789	0.641964	0.724312	0.812666	
336.0	0.485093	0.490592	0.50806	0.540443	0.591004	0.659001	0.738385	0.822687	
337.0	0.500603	0.506377	0.52462	0.557907	0.6086	0.675125	0.751521	0.831967	
338.0	0.516157	0.522179	0.541072	0.574991	0.625472	0.690312	0.763752	0.840552	
339.0	0.53167	0.537899	0.557303	0.591594	0.641571	0.704585	0.775136	0.848502	
340.0	0.546712	0.553107	0.572878	0.607304	0.656554	0.717683	0.785488	0.855691	
341.0	0.560763	0.567278	0.587282	0.621646	0.670024	0.729297	0.794577	0.861965	
342.0	0.574562	0.581154	0.601261	0.635383	0.682754	0.740168	0.803039	0.867792	
343.0	0.588043	0.594671	0.614763	0.648493	0.694761	0.750335	0.810918	0.873208	
344.0	0.601151	0.607776	0.627751	0.660968	0.706068	0.759841	0.818257	0.878245	
345.0	0.613308	0.619902	0.639691	0.672333	0.716279	0.768371	0.82482	0.882744	
346.0	0.624717	0.631257	0.650802	0.682823	0.725631	0.776141	0.830782	0.886827	
347.0	0.635719	0.642183	0.661431	0.69278	0.734448	0.783435	0.836366	0.890649	
348.0	0.646292	0.652662	0.671571	0.702214	0.742752	0.790277	0.841594	0.894226	
349.0	0.656417	0.662678	0.681218	0.711138	0.750566	0.796694	0.84649	0.897575	
350.0	0.666087	0.67223	0.69038	0.71957	0.757916	0.802714	0.851078	0.900712	
351.0	0.675306	0.681324	0.699072	0.727534	0.764835	0.808366	0.855381	0.903654	
352.0	0.684084	0.689974	0.707315	0.73506	0.771352	0.813681	0.859423	0.906417	
353.0	0.692439	0.698198	0.715132	0.742176	0.777497	0.818684	0.863225	0.909016	
354.0	0.70039	0.706018	0.722549	0.748909	0.783301	0.823402	0.866808	0.911465	
355.0	0.707674	0.713178	0.729332	0.755059	0.788597	0.827708	0.87008	0.913703	
356.0	0.714564	0.719947	0.735736	0.760855	0.793583	0.831761	0.873158	0.915809	
357.0	0.721153	0.726418	0.74185	0.766383	0.798333	0.835618	0.876087	0.917813	
358.0	0.727466	0.732615	0.747699	0.771665	0.802869	0.839299	0.878882	0.919725	
359.0	0.733529	0.738565	0.753312	0.776729	0.807214	0.842824	0.881557	0.921554	
360.0	0.739364	0.744289	0.758707	0.781592	0.811384	0.846206	0.884121	0.923306	
361.0	0.744986	0.749803	0.763901	0.78627	0.815392	0.849453	0.886581	0.924986	
362.0	0.750409	0.75512	0.768905	0.790774	0.819247	0.852573	0.888943	0.926596	
363.0	0.75564	0.760248	0.773728	0.79511	0.822955	0.855572	0.89121	0.928141	
364.0	0.760687	0.765194	0.778377	0.799286	0.826523	0.858454	0.893385	0.929621	
365.0	0.764259	0.768688	0.78164	0.802187	0.828965	0.860391	0.894821	0.930587	
366.0	0.764731	0.769128	0.781993	0.802409	0.829042	0.860344	0.894706	0.930473	
367.0	0.765178	0.769545	0.782323	0.802612	0.829104	0.860287	0.894584	0.930354	
368.0	0.765596	0.769933	0.782627	0.802792	0.829148	0.860216	0.89445	0.930226	
369.0	0.765974	0.770283	0.782895	0.80294	0.829164	0.860122	0.894298	0.930085	
370.0	0.7663	0.770581	0.783114	0.803045	0.829145	0.859999	0.894125	0.929928	
371.0	0.766569	0.770823	0.783282	0.803104	0.829087	0.859847	0.893929	0.929754	
372.0	0.76678	0.771009	0.783397	0.803119	0.828993	0.859667	0.893713	0.929567	
373.0	0.766935	0.771141	0.783463	0.803091	0.828866	0.859463	0.893479	0.929367	
374.0	0.767039	0.771223	0.783484	0.803025	0.828709	0.859236	0.89323	0.929157	
375.0	0.767095	0.771258	0.783464	0.802925	0.828526	0.858992	0.89297	0.92894	
376.0	0.767919	0.772051	0.784168	0.803497	0.828943	0.859257	0.893112	0.929004	
377.0	0.77055	0.774625	0.786576	0.805644	0.830759	0.860705	0.894185	0.929719	
378.0	0.773079	0.7771	0.788891	0.80771	0.83251	0.862103	0.895223	0.930411	
379.0	0.775515	0.779483	0.791123	0.809705	0.834203	0.863457	0.896231	0.931084	
380.0	0.777866	0.781785	0.79328	0.811636	0.835845	0.864774	0.897214	0.931743	
381.0	0.780149	0.78402	0.795377	0.813515	0.837448	0.866064	0.89818	0.932393	
382.0	0.782373	0.786198	0.797422	0.815352	0.839018	0.867332	0.899134	0.933037	
383.0	0.784545	0.788327	0.799423	0.817152	0.84056	0.868582	0.900078	0.933677	
384.0	0.786673	0.790412	0.801384	0.818918	0.842077	0.869814	0.901012	0.934314	
385.0	0.788758	0.792456	0.803308	0.820653	0.84357	0.871031	0.901938	0.934947	
386.0	0.790803	0.794462	0.805197	0.822359	0.845041	0.872233	0.902855	0.935576	
387.0	0.792812	0.796431	0.807053	0.824037	0.846489	0.873418	0.903763	0.936202	
388.0	0.79513	0.798707	0.809205	0.825993	0.84819	0.874824	0.904849	0.936956	
389.0	0.797745	0.801275	0.81164	0.828213	0.850132	0.876438	0.906104	0.937832	
390.0	0.800306	0.803792	0.814024	0.830389	0.852035	0.878021	0.907337	0.938693	
391.0	0.802813	0.806255	0.816358	0.832518	0.853897	0.879571	0.908544	0.939538	
392.0	0.805262	0.80866	0.818637	0.834596	0.855715	0.881083	0.909722	0.940362	
393.0	0.80764	0.810996	0.820849	0.836613	0.857477	0.882549	0.910865	0.941162	
394.0	0.809935	0.81325	0.822983	0.838557	0.859177	0.883963	0.911966	0.941933	
395.0	0.812141	0.815416	0.825032	0.840425	0.86081	0.885322	0.913026	0.942675	
396.0	0.814252	0.817488	0.826995	0.842214	0.862374	0.886625	0.914043	0.943388	
397.0	0.816266	0.819466	0.828867	0.843921	0.863868	0.887871	0.915018	0.944074	
398.0	0.818181	0.821347	0.830648	0.845545	0.865292	0.889062	0.915953	0.944732	
399.0	0.819996	0.823129	0.832335	0.847086	0.866646	0.890197	0.916848	0.945366	
400.0	0.821706	0.824809	0.833927	0.848542	0.867927	0.891277	0.917704	0.945976	
401.0	0.822847	0.825926	0.834977	0.84949	0.868751	0.891964	0.918247	0.946365	
402.0	0.823887	0.826944	0.835933	0.850356	0.869508	0.892602	0.918758	0.946737	
403.0	0.824816	0.827854	0.836788	0.851131	0.870191	0.893185	0.919235	0.947092	
404.0	0.825619	0.828639	0.837526	0.851804	0.87079	0.893707	0.919675	0.947429	
405.0	0.826271	0.829277	0.838126	0.852354	0.871289	0.894159	0.920072	0.947747	
406.0	0.82675	0.829745	0.838567	0.852764	0.871677	0.894531	0.920426	0.948051	
407.0	0.827032	0.830019	0.838827	0.853015	0.871937	0.894815	0.920732	0.948339	
408.0	0.827074	0.830059	0.838866	0.853073	0.872042	0.894992	0.92098	0.948609	
409.0	0.826815	0.829804	0.83863	0.852889	0.871955	0.895038	0.921158	0.948861	
410.0	0.826174	0.829174	0.838045	0.852402	0.871631	0.894925	0.921258	0.949096	
411.0	0.825041	0.828065	0.837017	0.851537	0.871019	0.89463	0.921275	0.949324	
412.0	0.823282	0.826346	0.835434	0.85021	0.870071	0.894137	0.921223	0.949573	
413.0	0.820741	0.823873	0.833178	0.848347	0.868762	0.893466	0.921149	0.949901	
414.0	0.817525	0.820764	0.830405	0.846153	0.867347	0.892901	0.921326	0.950527	
415.0	0.813386	0.816797	0.826963	0.843574	0.865864	0.892533	0.921858	0.951543	
416.0	0.80836	0.812041	0.823007	0.840865	0.864625	0.892664	0.922981	0.953102	
417.0	0.803088	0.80717	0.819278	0.838801	0.864342	0.893845	0.925046	0.955386	
418.0	0.798979	0.803589	0.817137	0.838576	0.865906	0.896601	0.928275	0.958433	
419.0	0.79804	0.803215	0.818209	0.84133	0.869897	0.901066	0.932542	0.962032	
420.0	0.801742	0.807343	0.823311	0.847287	0.876071	0.906773	0.937373	0.965808	
421.0	0.81005	0.815784	0.83191	0.855623	0.883542	0.912981	0.942244	0.969435	
422.0	0.821425	0.826976	0.842461	0.864974	0.891281	0.919018	0.946767	0.972713	
423.0	0.833791	0.838951	0.853304	0.874126	0.898522	0.924469	0.95075	0.975571	
424.0	0.845548	0.850241	0.863311	0.882359	0.904886	0.929175	0.954154	0.978023	
425.0	0.85589	0.860132	0.871991	0.889417	0.910287	0.933141	0.957023	0.980122	
426.0	0.864619	0.868468	0.879281	0.895323	0.914797	0.936453	0.959435	0.981929	
427.0	0.871852	0.875374	0.88532	0.900221	0.918543	0.939215	0.961465	0.983498	
428.0	0.877592	0.880853	0.890109	0.9041	0.921505	0.941396	0.963085	0.984805	
429.0	0.882104	0.88516	0.89387	0.907139	0.923814	0.943089	0.964354	0.985885	
430.0	0.885833	0.888721	0.896985	0.909662	0.925733	0.944494	0.965415	0.986832	
431.0	0.88895	0.891701	0.899597	0.911778	0.927339	0.945662	0.9663	0.987662	
432.0	0.891595	0.894231	0.901815	0.913576	0.928695	0.946636	0.967032	0.988385	
433.0	0.893879	0.896416	0.903733	0.915126	0.929855	0.947451	0.967632	0.989009	
434.0	0.895891	0.898341	0.905422	0.916488	0.930861	0.948136	0.968116	0.98954	
435.0	0.897685	0.900058	0.906926	0.917692	0.931733	0.948699	0.968481	0.989966	
436.0	0.899294	0.901596	0.90827	0.918756	0.93248	0.94914	0.968718	0.990268	
437.0	0.90074	0.902977	0.90947	0.919692	0.933107	0.949457	0.968812	0.990421	
438.0	0.902043	0.904218	0.91054	0.920508	0.933615	0.94964	0.968745	0.990396	
439.0	0.903215	0.905333	0.91149	0.921209	0.934003	0.949682	0.968494	0.990154	
440.0	0.904269	0.906331	0.912328	0.921798	0.934269	0.94957	0.968032	0.98965	
441.0	0.905212	0.90722	0.913059	0.922277	0.934408	0.949288	0.967328	0.988831	
442.0	0.906052	0.908006	0.913686	0.922646	0.934414	0.94882	0.966343	0.987632	
443.0	0.906879	0.908777	0.914291	0.922974	0.934338	0.948191	0.965068	0.985998	
444.0	0.907945	0.909779	0.915103	0.923461	0.934341	0.947509	0.963536	0.98388	
445.0	0.908904	0.910674	0.915801	0.923817	0.934167	0.946547	0.961539	0.981073	
446.0	0.90976	0.911463	0.916385	0.924036	0.933798	0.945266	0.958998	0.977446	
447.0	0.910513	0.912146	0.916853	0.924108	0.933214	0.94362	0.955822	0.972861	
448.0	0.911163	0.912724	0.917201	0.924026	0.932392	0.941558	0.951911	0.967177	
449.0	0.91171	0.913193	0.917423	0.923776	0.931305	0.939019	0.947152	0.960262	
450.0	0.91215	0.91355	0.917515	0.923345	0.929919	0.93593	0.941419	0.952012	
451.0	0.912479	0.913791	0.917465	0.922713	0.928194	0.932206	0.934587	0.942385	
452.0	0.91269	0.913905	0.91726	0.921855	0.926079	0.927749	0.926534	0.931432	
453.0	0.912774	0.913884	0.916886	0.920745	0.923518	0.922454	0.917163	0.919341	
454.0	0.91272	0.913713	0.916323	0.919347	0.920442	0.9162	0.906429	0.906463	
455.0	0.912517	0.913381	0.915552	0.917625	0.916778	0.908875	0.89437	0.893307	
456.0	0.912149	0.912869	0.914547	0.915533	0.912438	0.900364	0.88114	0.8805	
457.0	0.9116	0.91216	0.913279	0.91302	0.907327	0.890583	0.867046	0.868701	
458.0	0.910849	0.911227	0.911713	0.910023	0.901336	0.879481	0.852553	0.858497	
459.0	0.909874	0.910047	0.909811	0.906476	0.894361	0.867088	0.838278	0.850305	
460.0	0.908647	0.908589	0.907531	0.902309	0.886316	0.853588	0.824973	0.844334	
461.0	0.90714	0.906819	0.904821	0.897432	0.8771	0.839225	0.813288	0.840532	
462.0	0.905313	0.90469	0.901614	0.891743	0.86663	0.82441	0.803789	0.83871	
463.0	0.903124	0.902157	0.897845	0.885142	0.854898	0.809742	0.796859	0.838569	
464.0	0.900522	0.899161	0.893431	0.87752	0.84196	0.795927	0.792625	0.839769	
465.0	0.897449	0.895635	0.888282	0.868776	0.827999	0.783731	0.790987	0.841979	
466.0	0.893838	0.891506	0.8823	0.85883	0.813345	0.773843	0.791644	0.844895	
467.0	0.889614	0.886689	0.875383	0.847641	0.798498	0.766774	0.794191	0.848266	
468.0	0.884688	0.881088	0.867424	0.835228	0.784122	0.762773	0.798189	0.851892	
469.0	0.878965	0.874601	0.858326	0.821715	0.771006	0.761802	0.803215	0.855621	
470.0	0.87234	0.867119	0.848013	0.807357	0.759953	0.763577	0.808902	0.859341	
471.0	0.864708	0.858543	0.836459	0.792593	0.751672	0.767644	0.814947	0.862972	
472.0	0.855966	0.848783	0.823711	0.77804	0.746638	0.773473	0.821117	0.866458	
473.0	0.84603	0.837787	0.809933	0.764481	0.745014	0.780538	0.827242	0.869764	
474.0	0.834851	0.825559	0.795438	0.752782	0.746639	0.788371	0.833202	0.872869	
475.0	0.822454	0.812216	0.780743	0.743779	0.75109	0.796579	0.838915	0.875756	
476.0	0.808963	0.798002	0.766549	0.738108	0.757789	0.804868	0.844334	0.878423	
477.0	0.794656	0.783358	0.753746	0.736124	0.766112	0.813011	0.849419	0.88086	
478.0	0.780091	0.76906	0.743494	0.73797	0.775461	0.820762	0.854059	0.883005	
479.0	0.76599	0.755927	0.736416	0.742931	0.785224	0.828093	0.858348	0.884924	
480.0	0.753209	0.744878	0.733011	0.750366	0.795028	0.834966	0.8623	0.886625	
481.0	0.742677	0.736779	0.7334	0.759562	0.804605	0.841367	0.865926	0.888112	
482.0	0.735247	0.732276	0.737314	0.769842	0.813779	0.847298	0.869243	0.88939	
483.0	0.731514	0.731649	0.744184	0.780628	0.822444	0.852775	0.872266	0.890462	
484.0	0.73169	0.734764	0.753275	0.791475	0.830547	0.85782	0.87501	0.89133	
485.0	0.735571	0.741126	0.763828	0.802064	0.83807	0.862457	0.877489	0.891996	
486.0	0.742599	0.750011	0.775157	0.812182	0.845019	0.866712	0.879717	0.892457	
487.0	0.752019	0.760622	0.786713	0.821709	0.851418	0.870611	0.881704	0.892712	
488.0	0.763017	0.772207	0.798086	0.830582	0.857295	0.874179	0.883459	0.892756	
489.0	0.774853	0.784142	0.809001	0.838783	0.862685	0.877438	0.884991	0.892581	
490.0	0.786926	0.795963	0.819294	0.846327	0.867625	0.88041	0.886306	0.892179	
491.0	0.798792	0.807345	0.828877	0.853243	0.87215	0.883113	0.887407	0.891536	
492.0	0.810153	0.818089	0.837721	0.85957	0.876293	0.885565	0.888296	0.89064	
493.0	0.820829	0.82809	0.845835	0.865352	0.880085	0.88778	0.888972	0.88947	
494.0	0.830733	0.83731	0.853251	0.870632	0.883556	0.88977	0.889434	0.888006	
495.0	0.839837	0.845752	0.860011	0.875454	0.88673	0.891545	0.889675	0.886222	
496.0	0.848223	0.853513	0.86622	0.879902	0.889665	0.893141	0.889711	0.884105	
497.0	0.85638	0.861066	0.872291	0.884307	0.892621	0.894768	0.889697	0.881725	
498.0	0.863741	0.867882	0.877785	0.888313	0.895306	0.896172	0.889406	0.878902	
499.0	0.870377	0.874032	0.88276	0.891959	0.89774	0.897357	0.888821	0.875601	
500.0	0.87636	0.879584	0.887269	0.89528	0.89994	0.898326	0.887917	0.871791	
501.0	0.881756	0.884599	0.891362	0.898306	0.901921	0.899076	0.886665	0.867462	
502.0	0.886631	0.889138	0.895082	0.901063	0.903695	0.899604	0.885031	0.862643	
503.0	0.891041	0.893251	0.898468	0.903576	0.905272	0.899901	0.882971	0.857437	
504.0	0.895035	0.896983	0.901551	0.905862	0.906658	0.899956	0.880433	0.852094	
505.0	0.898661	0.900376	0.904363	0.907941	0.90786	0.899753	0.87736	0.847111	
506.0	0.901957	0.903464	0.906929	0.909827	0.908879	0.89927	0.873686	0.843371	
507.0	0.904958	0.90628	0.909271	0.911531	0.909716	0.898482	0.869344	0.842299	
508.0	0.907694	0.90885	0.911409	0.913064	0.91037	0.897353	0.864277	0.845857	
509.0	0.910193	0.911198	0.913359	0.914435	0.910835	0.895841	0.85845	0.856113	
510.0	0.912476	0.913343	0.915135	0.915649	0.911103	0.893891	0.851894	0.874132	
511.0	0.914563	0.915304	0.91675	0.91671	0.911164	0.89144	0.844771	0.898638	
512.0	0.916472	0.917096	0.918213	0.917622	0.911002	0.888404	0.837472	0.925881	
513.0	0.918218	0.918731	0.919534	0.918385	0.910599	0.884685	0.830775	0.951383	
514.0	0.919812	0.920222	0.920718	0.918997	0.90993	0.880164	0.825987	0.972118	
515.0	0.921266	0.921576	0.921771	0.919456	0.908964	0.874697	0.824938	0.987224	
516.0	0.922588	0.922801	0.922696	0.919756	0.907663	0.868121	0.829589	0.997315	
517.0	0.923765	0.923883	0.923475	0.91987	0.905968	0.860284	0.840932	1.00353	
518.0	0.924797	0.924821	0.924104	0.919785	0.903825	0.851069	0.858071	1.007062	
519.0	0.925722	0.925652	0.924613	0.919515	0.901185	0.840339	0.878739	1.008834	
520.0	0.926544	0.926376	0.925	0.919045	0.897961	0.828118	0.899805	1.009457	
521.0	0.927263	0.926994	0.92526	0.918353	0.894047	0.814702	0.918793	1.00935	
522.0	0.927881	0.927506	0.925387	0.917413	0.889313	0.800842	0.934496	1.008794	
523.0	0.928396	0.927911	0.925373	0.916193	0.8836	0.787963	0.946753	1.007973	
524.0	0.928809	0.928203	0.925209	0.914655	0.876715	0.778186	0.95598	1.007009	
525.0	0.929115	0.92838	0.924881	0.912753	0.868431	0.773952	0.962773	1.005978	
526.0	0.92931	0.928435	0.924374	0.910427	0.858481	0.777092	0.967713	1.00493	
527.0	0.92939	0.92836	0.923669	0.907609	0.846585	0.787811	0.971276	1.003896	
528.0	0.929347	0.928146	0.922744	0.904211	0.832462	0.804421	0.973834	1.002895	
529.0	0.929173	0.927781	0.921571	0.900131	0.815919	0.824123	0.975662	1.001938	
530.0	0.928856	0.92725	0.920116	0.895236	0.796951	0.844238	0.976962	1.001031	
531.0	0.928384	0.926536	0.91834	0.889371	0.775966	0.862926	0.977878	1.000177	
532.0	0.927741	0.925618	0.916194	0.882345	0.754037	0.87929	0.978516	0.999375	
533.0	0.926909	0.924471	0.91362	0.873927	0.733124	0.893117	0.978951	0.998624	
534.0	0.925864	0.923065	0.910545	0.863843	0.716021	0.904574	0.979241	0.997923	
535.0	0.92458	0.921364	0.906883	0.851774	0.70578	0.91398	0.979424	0.997269	
536.0	0.923024	0.919325	0.90253	0.837377	0.70461	0.92168	0.97953	0.996659	
537.0	0.921158	0.916896	0.897358	0.820303	0.712837	0.927996	0.979581	0.996092	
538.0	0.918936	0.914015	0.891211	0.800267	0.728752	0.9332	0.979593	0.995563	
539.0	0.916302	0.910605	0.883901	0.777169	0.749453	0.937516	0.979578	0.99507	
540.0	0.913329	0.906705	0.875266	0.7509	0.772553	0.941383	0.979651	0.994664	
541.0	0.909799	0.902071	0.864918	0.722522	0.795427	0.944669	0.979718	0.994294	
542.0	0.905593	0.896545	0.852504	0.693968	0.816582	0.947461	0.979771	0.993951	
543.0	0.900589	0.889957	0.837637	0.668253	0.835364	0.949853	0.979816	0.993634	
544.0	0.894634	0.882094	0.819885	0.649076	0.851654	0.951919	0.979855	0.993342	
545.0	0.887544	0.872705	0.79884	0.639782	0.865597	0.953718	0.979891	0.993072	
546.0	0.879098	0.861486	0.77419	0.642007	0.877463	0.955297	0.979926	0.992822	
547.0	0.86902	0.848072	0.745885	0.654967	0.887553	0.956693	0.979962	0.992592	
548.0	0.856989	0.832057	0.714411	0.675901	0.896147	0.957935	0.979998	0.99238	
549.0	0.84263	0.812996	0.681101	0.701301	0.903494	0.959049	0.980037	0.992184	
550.0	0.825513	0.790454	0.648406	0.728055	0.909806	0.960055	0.980079	0.992004	
551.0	0.805185	0.764102	0.619881	0.753983	0.91526	0.960967	0.980123	0.991839	
552.0	0.781226	0.733881	0.599548	0.777853	0.919999	0.961801	0.980169	0.991686	
553.0	0.753353	0.700252	0.590659	0.799148	0.924141	0.962566	0.98022	0.991546	
554.0	0.721595	0.664513	0.59442	0.817801	0.927783	0.963273	0.980273	0.991418	
555.0	0.686584	0.629099	0.60954	0.833976	0.931005	0.963928	0.980329	0.9913	
556.0	0.649874	0.597577	0.6329	0.847938	0.93387	0.964538	0.980388	0.991193	
557.0	0.614186	0.574081	0.660825	0.859981	0.936433	0.965109	0.98045	0.991095	
558.0	0.583299	0.562137	0.69014	0.870385	0.938736	0.965645	0.980514	0.991005	
559.0	0.561368	0.563361	0.718621	0.8794	0.940817	0.966151	0.980581	0.990924	
560.0	0.551643	0.576847	0.744999	0.887243	0.942705	0.966629	0.980651	0.99085	
561.0	0.555264	0.59968	0.768714	0.894098	0.944427	0.967082	0.980723	0.990784	
562.0	0.570869	0.628134	0.789655	0.900117	0.946003	0.967514	0.980797	0.990724	
563.0	0.595286	0.658802	0.807966	0.905431	0.947452	0.967925	0.980873	0.99067	
564.0	0.624916	0.689238	0.823843	0.910072	0.948733	0.968276	0.980919	0.990601	
565.0	0.656379	0.717812	0.837527	0.914098	0.949833	0.968549	0.980922	0.990506	
566.0	0.687037	0.743647	0.849385	0.91769	0.95085	0.96881	0.980928	0.990419	
567.0	0.715533	0.766553	0.859688	0.920908	0.951793	0.96906	0.980938	0.990337	
568.0	0.741252	0.786638	0.868673	0.923805	0.95267	0.9693	0.98095	0.99026	
569.0	0.764058	0.804152	0.876543	0.926423	0.953489	0.969531	0.980965	0.990189	
570.0	0.78407	0.81939	0.883465	0.9288	0.954254	0.969754	0.980983	0.990122	
571.0	0.80154	0.832652	0.889581	0.930965	0.954973	0.969969	0.981003	0.99006	
572.0	0.816772	0.844224	0.89501	0.932944	0.955648	0.970177	0.981025	0.990003	
573.0	0.830054	0.854345	0.89985	0.93476	0.956285	0.970378	0.98105	0.98995	
574.0	0.841662	0.863233	0.904184	0.936433	0.956887	0.970574	0.981076	0.9899	
575.0	0.851836	0.871068	0.908081	0.937977	0.957456	0.970763	0.981104	0.989854	
576.0	0.860785	0.878002	0.911599	0.939406	0.957996	0.970948	0.981134	0.989812	
577.0	0.868687	0.884166	0.914787	0.940735	0.95851	0.971127	0.981165	0.989772	
578.0	0.875693	0.889668	0.917687	0.941971	0.958999	0.971302	0.981197	0.989736	
579.0	0.881929	0.894599	0.920334	0.943126	0.959465	0.971473	0.981231	0.989703	
580.0	0.887503	0.899035	0.922758	0.944206	0.95991	0.97164	0.981267	0.989672	
581.0	0.892504	0.903042	0.924985	0.94522	0.960337	0.971802	0.981303	0.989644	
582.0	0.89701	0.906675	0.927037	0.946172	0.960745	0.971961	0.98134	0.989619	
583.0	0.901084	0.90998	0.928933	0.947069	0.961137	0.972117	0.981378	0.989596	
584.0	0.904782	0.912997	0.93069	0.947916	0.961513	0.972269	0.981418	0.989574	
585.0	0.908148	0.915759	0.932323	0.948717	0.961875	0.972418	0.981458	0.989555	
586.0	0.911223	0.918297	0.933843	0.949476	0.962224	0.972565	0.981498	0.989538	
587.0	0.914042	0.920635	0.935263	0.950196	0.96256	0.972708	0.98154	0.989523	
588.0	0.916633	0.922795	0.936591	0.95088	0.962885	0.972849	0.981582	0.98951	
589.0	0.919022	0.924796	0.937837	0.951531	0.963199	0.972987	0.981625	0.989498	
590.0	0.92123	0.926654	0.939007	0.952152	0.963502	0.973123	0.981668	0.989488	
591.0	0.923186	0.928297	0.940032	0.952678	0.963742	0.973214	0.981679	0.989458	
592.0	0.924941	0.92977	0.940945	0.953137	0.963938	0.973275	0.981671	0.989415	
593.0	0.926569	0.931142	0.941803	0.953575	0.964128	0.973335	0.981664	0.989374	
594.0	0.928085	0.932424	0.942614	0.953992	0.964311	0.973394	0.981658	0.989335	
595.0	0.929498	0.933624	0.943378	0.95439	0.964488	0.973452	0.981653	0.989298	
596.0	0.930818	0.934748	0.944102	0.954771	0.964659	0.97351	0.981649	0.989263	
597.0	0.932054	0.935804	0.944787	0.955136	0.964825	0.973566	0.981646	0.989229	
598.0	0.933214	0.936798	0.945437	0.955486	0.964986	0.973622	0.981644	0.989196	
599.0	0.934303	0.937735	0.946054	0.955822	0.965142	0.973677	0.981643	0.989165	
600.0	0.935329	0.93862	0.946642	0.956144	0.965294	0.973732	0.981643	0.989136	
601.0	0.936296	0.939456	0.947201	0.956454	0.965441	0.973786	0.981644	0.989107	
602.0	0.937208	0.940248	0.947734	0.956752	0.965584	0.973839	0.981645	0.98908	
603.0	0.938072	0.940999	0.948244	0.957039	0.965723	0.973891	0.981648	0.989055	
604.0	0.93889	0.941711	0.94873	0.957316	0.965859	0.973943	0.98165	0.98903	
605.0	0.939665	0.942389	0.949196	0.957583	0.965991	0.973994	0.981654	0.989007	
606.0	0.940402	0.943034	0.949642	0.957841	0.96612	0.974045	0.981658	0.988985	
607.0	0.941102	0.943649	0.950069	0.95809	0.966246	0.974095	0.981663	0.988964	
608.0	0.941769	0.944236	0.950479	0.958331	0.966369	0.974145	0.981669	0.988943	
609.0	0.942405	0.944796	0.950874	0.958565	0.966488	0.974194	0.981675	0.988924	
610.0	0.943011	0.945332	0.951253	0.958791	0.966605	0.974243	0.981681	0.988906	
611.0	0.943591	0.945845	0.951617	0.95901	0.96672	0.974291	0.981688	0.988889	
612.0	0.944145	0.946337	0.951969	0.959222	0.966832	0.974339	0.981696	0.988872	
613.0	0.944676	0.946809	0.952307	0.959428	0.966941	0.974386	0.981704	0.988856	
614.0	0.945184	0.947261	0.952634	0.959629	0.967048	0.974432	0.981712	0.988842	
615.0	0.945672	0.947696	0.952949	0.959823	0.967153	0.974479	0.981721	0.988827	
616.0	0.94614	0.948115	0.953254	0.960012	0.967256	0.974525	0.98173	0.988814	
617.0	0.94659	0.948517	0.953549	0.960196	0.967357	0.97457	0.98174	0.988801	
618.0	0.947023	0.948905	0.953834	0.960376	0.967455	0.974615	0.98175	0.988789	
619.0	0.94744	0.949279	0.95411	0.96055	0.967552	0.97466	0.98176	0.988778	
620.0	0.947851	0.949649	0.954384	0.960726	0.967652	0.974707	0.981773	0.988769	
621.0	0.948327	0.950082	0.954715	0.960948	0.967787	0.974781	0.981804	0.988769	
622.0	0.948786	0.9505	0.955036	0.961165	0.967921	0.974854	0.981834	0.98877	
623.0	0.94923	0.950903	0.955347	0.961376	0.968051	0.974926	0.981865	0.988772	
624.0	0.949657	0.951294	0.955649	0.961582	0.968179	0.974998	0.981896	0.988774	
625.0	0.95007	0.951671	0.955942	0.961784	0.968305	0.975069	0.981927	0.988777	
626.0	0.950469	0.952036	0.956227	0.96198	0.968429	0.975139	0.981958	0.98878	
627.0	0.950855	0.95239	0.956503	0.962172	0.968551	0.975208	0.981989	0.988784	
628.0	0.951229	0.952733	0.956773	0.96236	0.96867	0.975276	0.98202	0.988788	
629.0	0.951591	0.953065	0.957035	0.962543	0.968787	0.975344	0.982051	0.988792	
630.0	0.951942	0.953388	0.95729	0.962723	0.968903	0.975411	0.982083	0.988797	
631.0	0.952282	0.953701	0.957538	0.962898	0.969016	0.975478	0.982114	0.988803	
632.0	0.952612	0.954006	0.95778	0.96307	0.969128	0.975543	0.982145	0.988808	
633.0	0.952933	0.954302	0.958016	0.963238	0.969238	0.975609	0.982176	0.988814	
634.0	0.953244	0.954589	0.958246	0.963403	0.969346	0.975673	0.982207	0.988821	
635.0	0.953547	0.954869	0.958471	0.963565	0.969453	0.975737	0.982238	0.988827	
636.0	0.953841	0.955142	0.958691	0.963723	0.969558	0.9758	0.98227	0.988834	
637.0	0.954128	0.955407	0.958905	0.963879	0.969661	0.975862	0.982301	0.988842	
638.0	0.954406	0.955666	0.959114	0.964031	0.969763	0.975924	0.982332	0.988849	
639.0	0.954678	0.955918	0.959319	0.96418	0.969864	0.975986	0.982363	0.988857	
640.0	0.954943	0.956164	0.959519	0.964327	0.969962	0.976047	0.982394	0.988865	
641.0	0.9552	0.956404	0.959715	0.964471	0.97006	0.976107	0.982425	0.988874	
642.0	0.955452	0.956639	0.959907	0.964612	0.970156	0.976166	0.982455	0.988882	
643.0	0.955698	0.956868	0.960095	0.964751	0.970251	0.976225	0.982486	0.988891	
644.0	0.955937	0.957091	0.960278	0.964888	0.970345	0.976284	0.982517	0.9889	
645.0	0.956171	0.95731	0.960459	0.965022	0.970437	0.976342	0.982548	0.988909	
646.0	0.9564	0.957524	0.960635	0.965154	0.970528	0.976399	0.982578	0.988919	
647.0	0.956623	0.957733	0.960808	0.965284	0.970618	0.976457	0.982609	0.988928	
648.0	0.956842	0.957937	0.960978	0.965411	0.970707	0.976513	0.982639	0.988938	
649.0	0.957056	0.958137	0.961144	0.965537	0.970794	0.976569	0.982669	0.988948	
650.0	0.957265	0.958333	0.961307	0.965661	0.970881	0.976624	0.9827	0.988958	
651.0	0.957469	0.958525	0.961467	0.965782	0.970966	0.97668	0.98273	0.988968	
652.0	0.95767	0.958714	0.961625	0.965902	0.97105	0.976734	0.98276	0.988979	
653.0	0.957902	0.958933	0.961812	0.966049	0.971159	0.976808	0.982805	0.988999	
654.0	0.958182	0.9592	0.962044	0.966236	0.971302	0.976912	0.982873	0.989035	
655.0	0.958458	0.959462	0.962272	0.966422	0.971444	0.977014	0.98294	0.989071	
656.0	0.958728	0.959719	0.962496	0.966604	0.971584	0.977115	0.983006	0.989106	
657.0	0.958993	0.959972	0.962717	0.966783	0.971722	0.977215	0.983072	0.989142	
658.0	0.959253	0.96022	0.962934	0.96696	0.971859	0.977314	0.983137	0.989177	
659.0	0.959508	0.960464	0.963147	0.967135	0.971993	0.977412	0.983202	0.989212	
660.0	0.959759	0.960703	0.963357	0.967306	0.972126	0.977509	0.983266	0.989246	
661.0	0.960006	0.960939	0.963564	0.967476	0.972258	0.977605	0.98333	0.989281	
662.0	0.960248	0.96117	0.963767	0.967643	0.972388	0.9777	0.983393	0.989315	
663.0	0.960486	0.961398	0.963968	0.967808	0.972516	0.977794	0.983456	0.98935	
664.0	0.96072	0.961622	0.964165	0.967971	0.972643	0.977888	0.983518	0.989384	
665.0	0.96095	0.961842	0.964359	0.968131	0.972768	0.97798	0.98358	0.989417	
666.0	0.961176	0.962058	0.96455	0.968289	0.972892	0.978071	0.983641	0.989451	
667.0	0.961399	0.962272	0.964739	0.968445	0.973014	0.978161	0.983701	0.989484	
668.0	0.961618	0.962481	0.964925	0.9686	0.973135	0.978251	0.983761	0.989518	
669.0	0.961833	0.962688	0.965108	0.968752	0.973255	0.978339	0.983821	0.989551	
670.0	0.962045	0.962891	0.965289	0.968902	0.973373	0.978427	0.98388	0.989583	
671.0	0.962254	0.963092	0.965466	0.96905	0.97349	0.978514	0.983939	0.989616	
672.0	0.96246	0.963289	0.965642	0.969196	0.973606	0.978599	0.983997	0.989649	
673.0	0.962662	0.963484	0.965815	0.969341	0.97372	0.978685	0.984054	0.989681	
674.0	0.962862	0.963675	0.965986	0.969484	0.973833	0.978769	0.984112	0.989713	
675.0	0.963058	0.963864	0.966154	0.969625	0.973945	0.978852	0.984168	0.989745	
676.0	0.963252	0.96405	0.96632	0.969764	0.974055	0.978935	0.984225	0.989777	
677.0	0.963442	0.964233	0.966484	0.969902	0.974165	0.979017	0.98428	0.989808	
678.0	0.96363	0.964414	0.966646	0.970038	0.974273	0.979098	0.984336	0.989839	
679.0	0.963816	0.964592	0.966805	0.970172	0.97438	0.979178	0.984391	0.989871	
680.0	0.963998	0.964768	0.966963	0.970305	0.974486	0.979258	0.984445	0.989902	
681.0	0.964178	0.964941	0.967118	0.970436	0.974591	0.979337	0.984499	0.989932	
682.0	0.964356	0.965113	0.967272	0.970565	0.974695	0.979415	0.984553	0.989963	
683.0	0.964531	0.965281	0.967423	0.970694	0.974797	0.979493	0.984606	0.989993	
684.0	0.964704	0.965448	0.967573	0.97082	0.974899	0.979569	0.984659	0.990024	
685.0	0.964874	0.965612	0.967721	0.970945	0.975	0.979645	0.984711	0.990054	
686.0	0.965043	0.965774	0.967867	0.971069	0.975099	0.979721	0.984763	0.990084	
687.0	0.965209	0.965935	0.968011	0.971192	0.975198	0.979795	0.984815	0.990113	
688.0	0.965373	0.966093	0.968154	0.971313	0.975295	0.979869	0.984866	0.990143	
689.0	0.965525	0.966239	0.968285	0.971425	0.975385	0.979937	0.984912	0.990169	
690.0	0.965636	0.966346	0.96838	0.971503	0.975445	0.979981	0.984941	0.990183	
691.0	0.965746	0.966452	0.968474	0.97158	0.975506	0.980024	0.984969	0.990197	
692.0	0.965855	0.966556	0.968566	0.971657	0.975565	0.980068	0.984997	0.990212	
693.0	0.965963	0.966659	0.968658	0.971733	0.975624	0.980111	0.985025	0.990226	
694.0	0.966069	0.966761	0.968748	0.971808	0.975683	0.980153	0.985053	0.99024	
695.0	0.966173	0.966862	0.968837	0.971882	0.975741	0.980196	0.98508	0.990254	
696.0	0.966277	0.966961	0.968926	0.971956	0.975799	0.980238	0.985108	0.990268	
697.0	0.966379	0.967059	0.969014	0.972028	0.975856	0.980279	0.985135	0.990282	
698.0	0.96648	0.967156	0.9691	0.972101	0.975912	0.980321	0.985162	0.990297	
699.0	0.96658	0.967252	0.969186	0.972172	0.975969	0.980362	0.985189	0.990311	
700.0	0.966679	0.967347	0.96927	0.972243	0.976024	0.980403	0.985216	0.990325	
701.0	0.966776	0.967441	0.969354	0.972313	0.976079	0.980443	0.985243	0.990339	
702.0	0.966873	0.967534	0.969437	0.972383	0.976134	0.980484	0.98527	0.990352	
703.0	0.966968	0.967626	0.969519	0.972451	0.976188	0.980524	0.985296	0.990366	
704.0	0.967063	0.967717	0.9696	0.97252	0.976242	0.980563	0.985322	0.99038	
705.0	0.967156	0.967807	0.969681	0.972587	0.976296	0.980603	0.985349	0.990394	
706.0	0.967248	0.967895	0.969761	0.972654	0.976349	0.980642	0.985374	0.990408	
707.0	0.96734	0.967983	0.96984	0.972721	0.976402	0.980681	0.9854	0.990422	
708.0	0.96743	0.968071	0.969918	0.972786	0.976454	0.98072	0.985426	0.990435	
709.0	0.967519	0.968157	0.969995	0.972851	0.976506	0.980758	0.985452	0.990449	
710.0	0.967608	0.968242	0.970072	0.972916	0.976557	0.980797	0.985477	0.990463	
711.0	0.967696	0.968326	0.970148	0.97298	0.976608	0.980834	0.985503	0.990476	
712.0	0.967782	0.96841	0.970223	0.973044	0.976659	0.980872	0.985528	0.99049	
713.0	0.967868	0.968493	0.970297	0.973107	0.976709	0.98091	0.985553	0.990504	
714.0	0.967953	0.968574	0.970371	0.973169	0.976759	0.980947	0.985578	0.990517	
715.0	0.968037	0.968656	0.970444	0.973231	0.976808	0.980984	0.985603	0.990531	
716.0	0.96812	0.968736	0.970517	0.973293	0.976857	0.981021	0.985628	0.990544	
717.0	0.968203	0.968816	0.970589	0.973354	0.976906	0.981057	0.985652	0.990557	
718.0	0.968284	0.968894	0.97066	0.973414	0.976954	0.981093	0.985677	0.990571	
719.0	0.968365	0.968973	0.97073	0.973474	0.977003	0.981129	0.985701	0.990584	
720.0	0.968445	0.96905	0.9708	0.973533	0.97705	0.981165	0.985725	0.990597	
721.0	0.968525	0.969127	0.970869	0.973592	0.977098	0.981201	0.985749	0.990611	
722.0	0.968603	0.969202	0.970938	0.973651	0.977144	0.981236	0.985774	0.990624	
723.0	0.968681	0.969278	0.971006	0.973709	0.977191	0.981271	0.985797	0.990637	
724.0	0.968758	0.969352	0.971074	0.973766	0.977237	0.981306	0.985821	0.99065	
725.0	0.968834	0.969426	0.97114	0.973823	0.977283	0.981341	0.985845	0.990663	
726.0	0.96891	0.969499	0.971207	0.97388	0.977329	0.981375	0.985868	0.990676	
727.0	0.968985	0.969572	0.971272	0.973936	0.977375	0.98141	0.985892	0.990689	
728.0	0.969059	0.969643	0.971337	0.973992	0.97742	0.981444	0.985915	0.990702	
729.0	0.969133	0.969715	0.971402	0.974047	0.977464	0.981477	0.985938	0.990715	
730.0	0.969261	0.969839	0.971517	0.974148	0.977549	0.981544	0.985986	0.990745	
731.0	0.969411	0.969985	0.971652	0.974268	0.977649	0.981624	0.986045	0.990781	
732.0	0.969559	0.97013	0.971786	0.974386	0.977749	0.981703	0.986103	0.990818	
733.0	0.969706	0.970273	0.971919	0.974504	0.977848	0.981782	0.98616	0.990854	
734.0	0.969851	0.970415	0.972051	0.97462	0.977946	0.98186	0.986217	0.99089	
735.0	0.969995	0.970555	0.972181	0.974735	0.978043	0.981937	0.986274	0.990925	
736.0	0.970137	0.970694	0.97231	0.974849	0.978139	0.982014	0.98633	0.99096	
737.0	0.970279	0.970831	0.972437	0.974962	0.978235	0.98209	0.986386	0.990996	
738.0	0.970418	0.970967	0.972564	0.975074	0.978329	0.982165	0.986441	0.99103	
739.0	0.970557	0.971102	0.972689	0.975185	0.978423	0.98224	0.986496	0.991065	
740.0	0.970693	0.971236	0.972813	0.975295	0.978516	0.982314	0.98655	0.991099	
741.0	0.970829	0.971368	0.972936	0.975404	0.978608	0.982387	0.986604	0.991133	
742.0	0.970963	0.971499	0.973058	0.975512	0.978699	0.98246	0.986658	0.991167	
743.0	0.971096	0.971628	0.973178	0.975619	0.97879	0.982533	0.986711	0.9912	
744.0	0.971228	0.971757	0.973297	0.975725	0.978879	0.982604	0.986763	0.991234	
745.0	0.971358	0.971884	0.973416	0.97583	0.978968	0.982675	0.986816	0.991267	
746.0	0.971487	0.97201	0.973533	0.975934	0.979056	0.982746	0.986868	0.991299	
747.0	0.971615	0.972135	0.973649	0.976037	0.979144	0.982816	0.986919	0.991332	
748.0	0.971742	0.972259	0.973764	0.976139	0.97923	0.982885	0.98697	0.991364	
749.0	0.971867	0.972381	0.973879	0.976241	0.979316	0.982954	0.987021	0.991396	
750.0	0.971992	0.972503	0.973991	0.976341	0.979402	0.983022	0.987071	0.991428	
751.0	0.972115	0.972623	0.974104	0.976441	0.979486	0.98309	0.987121	0.99146	
752.0	0.972237	0.972742	0.974214	0.97654	0.97957	0.983157	0.98717	0.991491	
753.0	0.972358	0.97286	0.974325	0.976638	0.979653	0.983224	0.98722	0.991522	
754.0	0.972478	0.972977	0.974434	0.976735	0.979735	0.98329	0.987268	0.991553	
755.0	0.972596	0.973093	0.974542	0.976831	0.979817	0.983355	0.987317	0.991584	
756.0	0.972714	0.973208	0.974649	0.976927	0.979898	0.983421	0.987365	0.991614	
757.0	0.972831	0.973322	0.974755	0.977021	0.979979	0.983485	0.987413	0.991645	
758.0	0.972946	0.973435	0.97486	0.977115	0.980059	0.983549	0.98746	0.991675	
759.0	0.973061	0.973547	0.974965	0.977208	0.980138	0.983613	0.987507	0.991705	
760.0	0.973174	0.973658	0.975068	0.9773	0.980216	0.983676	0.987553	0.991734	
761.0	0.973287	0.973768	0.975171	0.977392	0.980294	0.983738	0.9876	0.991764	
762.0	0.973398	0.973877	0.975273	0.977483	0.980371	0.9838	0.987646	0.991793	
763.0	0.973509	0.973985	0.975374	0.977573	0.980448	0.983862	0.987691	0.991822	
764.0	0.973618	0.974092	0.975474	0.977662	0.980524	0.983923	0.987736	0.991851	
765.0	0.973727	0.974198	0.975573	0.977751	0.980599	0.983984	0.987781	0.991879	
766.0	0.973835	0.974303	0.975671	0.977838	0.980674	0.984044	0.987826	0.991908	
767.0	0.973942	0.974408	0.975769	0.977926	0.980748	0.984104	0.98787	0.991936	
768.0	0.974048	0.974511	0.975865	0.978012	0.980822	0.984163	0.987914	0.991964	
769.0	0.974153	0.974614	0.975961	0.978098	0.980895	0.984222	0.987958	0.991992	
770.0	0.974257	0.974716	0.976056	0.978183	0.980968	0.98428	0.988001	0.99202	
771.0	0.97436	0.974817	0.976151	0.978267	0.98104	0.984338	0.988044	0.992047	
772.0	0.974462	0.974917	0.976244	0.978351	0.981111	0.984396	0.988087	0.992074	
773.0	0.974564	0.975016	0.976337	0.978434	0.981182	0.984453	0.988129	0.992101	
774.0	0.974664	0.975114	0.976429	0.978516	0.981252	0.98451	0.988171	0.992128	
775.0	0.974763	0.975211	0.976519	0.978597	0.981321	0.984565	0.988213	0.992155	
776.0	0.974851	0.975296	0.976599	0.978668	0.981382	0.984614	0.988248	0.992177	
777.0	0.974938	0.975381	0.976678	0.978738	0.981441	0.984661	0.988283	0.992199	
778.0	0.975024	0.975465	0.976757	0.978808	0.9815	0.984709	0.988318	0.992221	
779.0	0.975109	0.975549	0.976835	0.978878	0.981559	0.984756	0.988352	0.992242	
780.0	0.975194	0.975632	0.976912	0.978946	0.981618	0.984803	0.988387	0.992264	
781.0	0.975278	0.975714	0.976988	0.979014	0.981676	0.984849	0.988421	0.992285	
782.0	0.975361	0.975795	0.977064	0.979082	0.981733	0.984895	0.988454	0.992307	
783.0	0.975444	0.975876	0.977139	0.979149	0.98179	0.984941	0.988488	0.992328	
784.0	0.975526	0.975956	0.977214	0.979216	0.981847	0.984986	0.988522	0.992349	
785.0	0.975606	0.976035	0.977288	0.979282	0.981903	0.985031	0.988555	0.99237	
786.0	0.975687	0.976113	0.977361	0.979347	0.981958	0.985076	0.988587	0.99239	
787.0	0.975767	0.976191	0.977434	0.979412	0.982014	0.98512	0.98862	0.992411	
788.0	0.975846	0.976269	0.977506	0.979477	0.982068	0.985164	0.988653	0.992431	
789.0	0.975924	0.976345	0.977578	0.979541	0.982123	0.985208	0.988685	0.992452	
790.0	0.976002	0.976421	0.977649	0.979604	0.982177	0.985251	0.988717	0.992472	
791.0	0.976079	0.976497	0.977719	0.979667	0.98223	0.985294	0.988749	0.992492	
792.0	0.976156	0.976572	0.977789	0.979729	0.982284	0.985337	0.98878	0.992512	
793.0	0.976232	0.976646	0.977859	0.979792	0.982337	0.985379	0.988811	0.992531	
794.0	0.976307	0.976719	0.977928	0.979853	0.982389	0.985421	0.988843	0.992551	
795.0	0.976382	0.976792	0.977996	0.979914	0.982441	0.985463	0.988873	0.992571	
796.0	0.976456	0.976865	0.978064	0.979975	0.982493	0.985505	0.988904	0.99259	
797.0	0.976529	0.976937	0.978131	0.980035	0.982544	0.985546	0.988935	0.992609	
798.0	0.976602	0.977008	0.978197	0.980094	0.982595	0.985587	0.988965	0.992629	
799.0	0.976674	0.977079	0.978264	0.980154	0.982645	0.985628	0.988995	0.992648	
800.0	0.976746	0.977149	0.978329	0.980212	0.982696	0.985668	0.989025	0.992667	
801.0	0.976817	0.977219	0.978394	0.980271	0.982745	0.985708	0.989055	0.992685	
802.0	0.976888	0.977288	0.978459	0.980329	0.982795	0.985748	0.989084	0.992704	
803.0	0.976958	0.977356	0.978523	0.980386	0.982844	0.985788	0.989113	0.992723	
804.0	0.977027	0.977424	0.978587	0.980443	0.982892	0.985827	0.989142	0.992741	
805.0	0.977097	0.977492	0.97865	0.9805	0.982941	0.985866	0.989171	0.992759	
806.0	0.977165	0.977559	0.978713	0.980556	0.982989	0.985905	0.9892	0.992778	
807.0	0.977233	0.977625	0.978775	0.980612	0.983037	0.985943	0.989228	0.992796	
808.0	0.9773	0.977691	0.978837	0.980667	0.983084	0.985981	0.989257	0.992814	
809.0	0.977367	0.977757	0.978898	0.980722	0.983131	0.986019	0.989285	0.992832	
810.0	0.977434	0.977821	0.978959	0.980777	0.983178	0.986057	0.989313	0.99285	
811.0	0.9775	0.977886	0.97902	0.980831	0.983224	0.986094	0.989341	0.992867	
812.0	0.977565	0.97795	0.97908	0.980885	0.98327	0.986132	0.989368	0.992885	
813.0	0.97763	0.978014	0.979139	0.980938	0.983316	0.986168	0.989396	0.992902	
814.0	0.977694	0.978077	0.979198	0.980991	0.983361	0.986205	0.989423	0.99292	
815.0	0.977758	0.978139	0.979257	0.981044	0.983406	0.986242	0.98945	0.992937	
816.0	0.977822	0.978201	0.979315	0.981096	0.983451	0.986278	0.989477	0.992954	
817.0	0.977885	0.978263	0.979373	0.981148	0.983496	0.986314	0.989504	0.992971	
818.0	0.977947	0.978324	0.97943	0.9812	0.98354	0.98635	0.98953	0.992988	
819.0	0.97801	0.978385	0.979487	0.981251	0.983584	0.986385	0.989557	0.993005	
820.0	0.978071	0.978445	0.979544	0.981302	0.983627	0.98642	0.989583	0.993022	
821.0	0.978133	0.978505	0.9796	0.981352	0.983671	0.986455	0.989609	0.993038	
822.0	0.978193	0.978565	0.979656	0.981403	0.983714	0.98649	0.989635	0.993055	
823.0	0.978254	0.978624	0.979712	0.981452	0.983756	0.986525	0.989661	0.993071	
824.0	0.978314	0.978683	0.979767	0.981502	0.983799	0.986559	0.989686	0.993088	
825.0	0.978373	0.978741	0.979821	0.981551	0.983841	0.986593	0.989712	0.993104	
826.0	0.978432	0.978799	0.979876	0.9816	0.983883	0.986627	0.989737	0.99312	
827.0	0.978476	0.978841	0.979915	0.981635	0.983913	0.986651	0.989755	0.993131	
828.0	0.978497	0.978862	0.979934	0.981651	0.983926	0.986661	0.989761	0.993135	
829.0	0.978517	0.978882	0.979953	0.981667	0.983939	0.986671	0.989768	0.993138	
830.0	0.978538	0.978902	0.979971	0.981683	0.983952	0.986681	0.989775	0.993142	
831.0	0.978559	0.978922	0.979989	0.981699	0.983965	0.986691	0.989781	0.993145	
832.0	0.978579	0.978942	0.980008	0.981715	0.983978	0.986701	0.989788	0.993149	
833.0	0.9786	0.978962	0.980026	0.981731	0.983991	0.98671	0.989795	0.993152	
834.0	0.97862	0.978982	0.980044	0.981747	0.984004	0.98672	0.989801	0.993156	
835.0	0.97864	0.979001	0.980062	0.981762	0.984017	0.98673	0.989808	0.993159	
836.0	0.978661	0.979021	0.98008	0.981778	0.98403	0.98674	0.989815	0.993163	
837.0	0.978681	0.979041	0.980098	0.981794	0.984042	0.98675	0.989821	0.993167	
838.0	0.978701	0.97906	0.980116	0.981809	0.984055	0.986759	0.989828	0.99317	
839.0	0.978721	0.97908	0.980134	0.981825	0.984068	0.986769	0.989835	0.993174	
840.0	0.978741	0.979099	0.980152	0.98184	0.984081	0.986779	0.989841	0.993177	
841.0	0.978761	0.979118	0.98017	0.981856	0.984093	0.986789	0.989848	0.993181	
842.0	0.978781	0.979138	0.980188	0.981871	0.984106	0.986798	0.989855	0.993185	
843.0	0.9788	0.979157	0.980205	0.981887	0.984119	0.986808	0.989861	0.993188	
844.0	0.97882	0.979176	0.980223	0.981902	0.984132	0.986818	0.989868	0.993192	
845.0	0.97884	0.979195	0.98024	0.981917	0.984144	0.986828	0.989875	0.993195	
846.0	0.978859	0.979214	0.980258	0.981933	0.984157	0.986837	0.989881	0.993199	
847.0	0.978879	0.979233	0.980275	0.981948	0.984169	0.986847	0.989888	0.993203	
848.0	0.978898	0.979252	0.980293	0.981963	0.984182	0.986857	0.989895	0.993207	
849.0	0.978917	0.979271	0.98031	0.981978	0.984194	0.986866	0.989901	0.99321	
850.0	0.978936	0.979289	0.980327	0.981993	0.984207	0.986876	0.989908	0.993214	
851.0	0.978956	0.979308	0.980345	0.982008	0.984219	0.986885	0.989915	0.993218	
852.0	0.978975	0.979327	0.980362	0.982023	0.984232	0.986895	0.989921	0.993221	
853.0	0.978994	0.979345	0.980379	0.982038	0.984244	0.986904	0.989928	0.993225	
854.0	0.979013	0.979364	0.980396	0.982053	0.984257	0.986914	0.989935	0.993229	
855.0	0.979032	0.979382	0.980413	0.982068	0.984269	0.986924	0.989941	0.993232	
856.0	0.979051	0.979401	0.98043	0.982083	0.984281	0.986933	0.989948	0.993236	
857.0	0.97907	0.979419	0.980447	0.982098	0.984293	0.986943	0.989955	0.99324	
858.0	0.979088	0.979437	0.980464	0.982113	0.984306	0.986952	0.989961	0.993244	
859.0	0.979107	0.979455	0.980481	0.982128	0.984318	0.986962	0.989968	0.993247	
860.0	0.979125	0.979473	0.980497	0.982142	0.98433	0.986971	0.989974	0.993251	
861.0	0.979144	0.979492	0.980514	0.982157	0.984342	0.986981	0.989981	0.993255	
862.0	0.979163	0.97951	0.980531	0.982172	0.984355	0.98699	0.989988	0.993259	
863.0	0.979181	0.979528	0.980547	0.982186	0.984367	0.987	0.989994	0.993263	
864.0	0.979199	0.979545	0.980564	0.982201	0.984379	0.987009	0.990001	0.993266	
865.0	0.979218	0.979563	0.98058	0.982215	0.984391	0.987018	0.990008	0.99327	
866.0	0.979236	0.979581	0.980597	0.98223	0.984403	0.987028	0.990014	0.993274	
867.0	0.979254	0.979599	0.980613	0.982244	0.984415	0.987037	0.990021	0.993278	
868.0	0.979272	0.979616	0.98063	0.982259	0.984427	0.987047	0.990027	0.993282	
869.0	0.97929	0.979634	0.980646	0.982273	0.984439	0.987056	0.990034	0.993285	
870.0	0.979308	0.979652	0.980662	0.982287	0.984451	0.987065	0.990041	0.993289	
871.0	0.979326	0.979669	0.980679	0.982302	0.984463	0.987074	0.990047	0.993293	
872.0	0.979344	0.979687	0.980695	0.982316	0.984475	0.987084	0.990054	0.993297	
873.0	0.979362	0.979704	0.980711	0.98233	0.984487	0.987093	0.99006	0.9933	
874.0	0.97938	0.979721	0.980727	0.982344	0.984499	0.987102	0.990067	0.993304	
875.0	0.979398	0.979739	0.980743	0.982358	0.98451	0.987112	0.990074	0.993308	
876.0	0.979415	0.979756	0.980759	0.982373	0.984522	0.987121	0.99008	0.993312	
877.0	0.979433	0.979773	0.980775	0.982387	0.984534	0.98713	0.990086	0.993316	
878.0	0.979451	0.97979	0.980791	0.982401	0.984546	0.987139	0.990093	0.99332	
879.0	0.979468	0.979807	0.980807	0.982415	0.984557	0.987149	0.9901	0.993324	
880.0	0.979486	0.979824	0.980823	0.982429	0.984569	0.987158	0.990106	0.993327	
881.0	0.979503	0.979841	0.980838	0.982443	0.984581	0.987167	0.990113	0.993331	
882.0	0.97952	0.979858	0.980854	0.982457	0.984592	0.987176	0.990119	0.993335	
883.0	0.979538	0.979875	0.98087	0.982471	0.984604	0.987185	0.990126	0.993339	
884.0	0.979555	0.979892	0.980885	0.982484	0.984616	0.987194	0.990132	0.993343	
885.0	0.979572	0.979909	0.980901	0.982498	0.984627	0.987203	0.990139	0.993347	
886.0	0.979577	0.979913	0.980905	0.982501	0.984629	0.987205	0.990139	0.993346	
887.0	0.979562	0.979899	0.980891	0.982487	0.984617	0.987194	0.99013	0.993339	
888.0	0.979548	0.979885	0.980877	0.982474	0.984605	0.987183	0.990121	0.993333	
889.0	0.979533	0.97987	0.980863	0.982461	0.984592	0.987172	0.990112	0.993326	
890.0	0.979519	0.979856	0.980849	0.982448	0.98458	0.987162	0.990104	0.99332	
891.0	0.979506	0.979843	0.980836	0.982435	0.984569	0.987151	0.990095	0.993313	
892.0	0.979492	0.979829	0.980823	0.982423	0.984557	0.987141	0.990087	0.993307	
893.0	0.979479	0.979816	0.98081	0.98241	0.984545	0.987131	0.990078	0.993301	
894.0	0.979465	0.979803	0.980797	0.982398	0.984534	0.987121	0.99007	0.993294	
895.0	0.979452	0.97979	0.980784	0.982386	0.984523	0.987111	0.990062	0.993288	
896.0	0.979439	0.979777	0.980772	0.982374	0.984512	0.987101	0.990054	0.993282	
897.0	0.979427	0.979764	0.980759	0.982362	0.984501	0.987091	0.990046	0.993276	
898.0	0.979414	0.979752	0.980747	0.98235	0.98449	0.987082	0.990038	0.99327	
899.0	0.979402	0.979739	0.980735	0.982339	0.984479	0.987073	0.99003	0.993264	
900.0	0.979389	0.979727	0.980723	0.982327	0.984469	0.987063	0.990022	0.993259	
901.0	0.979378	0.979715	0.980711	0.982316	0.984459	0.987054	0.990015	0.993253	
902.0	0.979366	0.979703	0.9807	0.982305	0.984448	0.987045	0.990007	0.993247	
903.0	0.979354	0.979692	0.980688	0.982294	0.984438	0.987036	0.99	0.993242	
904.0	0.979342	0.97968	0.980677	0.982283	0.984428	0.987027	0.989993	0.993236	
905.0	0.979331	0.979669	0.980666	0.982273	0.984418	0.987019	0.989985	0.993231	
906.0	0.97932	0.979658	0.980655	0.982262	0.984409	0.98701	0.989978	0.993225	
907.0	0.979309	0.979647	0.980644	0.982252	0.984399	0.987001	0.989971	0.99322	
908.0	0.979298	0.979636	0.980633	0.982242	0.984389	0.986993	0.989964	0.993215	
909.0	0.979287	0.979625	0.980623	0.982232	0.98438	0.986985	0.989957	0.99321	
910.0	0.979276	0.979615	0.980613	0.982222	0.984371	0.986977	0.98995	0.993205	
911.0	0.979266	0.979604	0.980602	0.982212	0.984362	0.986969	0.989944	0.9932	
912.0	0.979255	0.979594	0.980592	0.982202	0.984353	0.986961	0.989937	0.993195	
913.0	0.979245	0.979584	0.980582	0.982193	0.984344	0.986953	0.989931	0.99319	
914.0	0.979235	0.979574	0.980572	0.982183	0.984335	0.986945	0.989924	0.993185	
915.0	0.979225	0.979564	0.980563	0.982174	0.984327	0.986937	0.989918	0.99318	
916.0	0.979215	0.979554	0.980553	0.982165	0.984318	0.98693	0.989912	0.993175	
917.0	0.979206	0.979544	0.980544	0.982156	0.984309	0.986922	0.989905	0.99317	
918.0	0.979196	0.979535	0.980534	0.982147	0.984301	0.986915	0.989899	0.993166	
919.0	0.979187	0.979526	0.980525	0.982138	0.984293	0.986907	0.989893	0.993161	
920.0	0.979178	0.979516	0.980516	0.982129	0.984285	0.9869	0.989887	0.993157	
921.0	0.979169	0.979507	0.980507	0.982121	0.984277	0.986893	0.989881	0.993152	
922.0	0.97916	0.979499	0.980499	0.982112	0.984269	0.986886	0.989875	0.993148	
923.0	0.979151	0.97949	0.98049	0.982104	0.984261	0.986879	0.98987	0.993143	
924.0	0.979142	0.979481	0.980481	0.982096	0.984254	0.986873	0.989864	0.993139	
925.0	0.979133	0.979473	0.980473	0.982088	0.984246	0.986866	0.989858	0.993135	
926.0	0.979125	0.979464	0.980465	0.98208	0.984239	0.986859	0.989853	0.993131	
927.0	0.979117	0.979456	0.980457	0.982072	0.984231	0.986853	0.989847	0.993127	
928.0	0.979109	0.979448	0.980449	0.982064	0.984224	0.986846	0.989842	0.993122	
929.0	0.979101	0.97944	0.980441	0.982056	0.984217	0.98684	0.989837	0.993118	
930.0	0.979093	0.979432	0.980433	0.982049	0.98421	0.986834	0.989831	0.993114	
931.0	0.979085	0.979424	0.980425	0.982041	0.984203	0.986827	0.989826	0.99311	
932.0	0.979077	0.979416	0.980418	0.982034	0.984196	0.986821	0.989821	0.993107	
933.0	0.979069	0.979409	0.98041	0.982027	0.98419	0.986815	0.989816	0.993103	
934.0	0.979062	0.979401	0.980403	0.98202	0.984183	0.986809	0.989811	0.993099	
935.0	0.979055	0.979394	0.980396	0.982013	0.984176	0.986804	0.989806	0.993095	
936.0	0.979047	0.979387	0.980389	0.982006	0.98417	0.986798	0.989801	0.993091	
937.0	0.97904	0.97938	0.980381	0.981999	0.984164	0.986792	0.989797	0.993088	
938.0	0.979033	0.979373	0.980375	0.981992	0.984157	0.986786	0.989792	0.993084	
939.0	0.979026	0.979366	0.980368	0.981986	0.984151	0.986781	0.989787	0.993081	
940.0	0.97902	0.979359	0.980361	0.981979	0.984145	0.986775	0.989783	0.993077	
941.0	0.979013	0.979352	0.980355	0.981973	0.984139	0.98677	0.989778	0.993074	
942.0	0.979006	0.979346	0.980348	0.981967	0.984133	0.986765	0.989774	0.99307	
943.0	0.979	0.979339	0.980342	0.981961	0.984127	0.98676	0.989769	0.993067	
944.0	0.978993	0.979333	0.980336	0.981954	0.984122	0.986754	0.989765	0.993064	
945.0	0.978987	0.979327	0.980329	0.981948	0.984116	0.986749	0.98976	0.99306	
946.0	0.978981	0.979321	0.980323	0.981943	0.98411	0.986744	0.989756	0.993057	
947.0	0.978975	0.979315	0.980317	0.981937	0.984105	0.986739	0.989752	0.993054	
948.0	0.978969	0.979309	0.980311	0.981931	0.984099	0.986735	0.989748	0.993051	
949.0	0.978963	0.979303	0.980306	0.981925	0.984094	0.98673	0.989744	0.993047	
950.0	0.978957	0.979297	0.9803	0.98192	0.984089	0.986725	0.98974	0.993044	
951.0	0.978952	0.979291	0.980294	0.981915	0.984084	0.98672	0.989736	0.993041	
952.0	0.978946	0.979286	0.980289	0.981909	0.984079	0.986716	0.989732	0.993038	
953.0	0.978941	0.97928	0.980283	0.981904	0.984074	0.986711	0.989728	0.993035	
954.0	0.97894	0.97928	0.980283	0.981903	0.984072	0.98671	0.989727	0.993034	
955.0	0.978951	0.97929	0.980292	0.981911	0.98408	0.986715	0.989731	0.993036	
956.0	0.978961	0.979301	0.980302	0.98192	0.984087	0.986721	0.989735	0.993039	
957.0	0.978972	0.979311	0.980312	0.981928	0.984094	0.986727	0.989739	0.993041	
958.0	0.978983	0.979321	0.980321	0.981937	0.984101	0.986732	0.989743	0.993043	
959.0	0.978994	0.979332	0.980331	0.981945	0.984108	0.986738	0.989747	0.993046	
960.0	0.979004	0.979342	0.98034	0.981954	0.984115	0.986744	0.989751	0.993048	
961.0	0.979015	0.979353	0.98035	0.981963	0.984123	0.986749	0.989755	0.993051	
962.0	0.979025	0.979363	0.98036	0.981971	0.98413	0.986755	0.989759	0.993053	
963.0	0.979036	0.979373	0.98037	0.98198	0.984137	0.986761	0.989763	0.993056	
964.0	0.979047	0.979384	0.980379	0.981988	0.984144	0.986766	0.989767	0.993058	
965.0	0.979057	0.979394	0.980389	0.981997	0.984151	0.986772	0.989771	0.993061	
966.0	0.979068	0.979404	0.980398	0.982005	0.984159	0.986778	0.989776	0.993063	
967.0	0.979079	0.979415	0.980408	0.982014	0.984166	0.986784	0.98978	0.993065	
968.0	0.979089	0.979425	0.980418	0.982023	0.984173	0.986789	0.989784	0.993068	
969.0	0.9791	0.979436	0.980428	0.982031	0.98418	0.986795	0.989788	0.99307	
970.0	0.97911	0.979446	0.980437	0.98204	0.984188	0.986801	0.989792	0.993073	
971.0	0.979121	0.979456	0.980447	0.982048	0.984195	0.986806	0.989796	0.993075	
972.0	0.979132	0.979467	0.980456	0.982057	0.984202	0.986812	0.9898	0.993078	
973.0	0.979142	0.979477	0.980466	0.982065	0.984209	0.986818	0.989804	0.99308	
974.0	0.979153	0.979487	0.980476	0.982074	0.984217	0.986823	0.989809	0.993083	
975.0	0.979163	0.979498	0.980485	0.982083	0.984224	0.986829	0.989813	0.993085	
976.0	0.979174	0.979508	0.980495	0.982091	0.984231	0.986835	0.989817	0.993088	
977.0	0.979184	0.979518	0.980505	0.9821	0.984238	0.986841	0.989821	0.99309	
978.0	0.979195	0.979529	0.980514	0.982108	0.984246	0.986847	0.989825	0.993093	
979.0	0.979206	0.979539	0.980524	0.982117	0.984253	0.986852	0.989829	0.993096	
980.0	0.979216	0.979549	0.980534	0.982125	0.98426	0.986858	0.989834	0.993098	
981.0	0.979227	0.97956	0.980543	0.982134	0.984267	0.986864	0.989838	0.993101	
982.0	0.979237	0.97957	0.980553	0.982143	0.984275	0.98687	0.989842	0.993103	
983.0	0.979248	0.97958	0.980562	0.982151	0.984282	0.986875	0.989846	0.993106	
984.0	0.979258	0.979591	0.980572	0.98216	0.984289	0.986881	0.989851	0.993108	
985.0	0.979269	0.979601	0.980582	0.982168	0.984296	0.986887	0.989855	0.993111	
986.0	0.979279	0.979611	0.980591	0.982177	0.984304	0.986893	0.989859	0.993114	
987.0	0.97929	0.979621	0.980601	0.982185	0.984311	0.986899	0.989863	0.993116	
988.0	0.9793	0.979632	0.98061	0.982194	0.984318	0.986904	0.989867	0.993119	
989.0	0.979311	0.979642	0.98062	0.982203	0.984325	0.98691	0.989872	0.993121	
990.0	0.979321	0.979652	0.98063	0.982211	0.984333	0.986916	0.989876	0.993124	
991.0	0.979332	0.979662	0.980639	0.98222	0.98434	0.986922	0.98988	0.993127	
992.0	0.979342	0.979673	0.980649	0.982228	0.984347	0.986928	0.989884	0.993129	
993.0	0.979353	0.979683	0.980658	0.982237	0.984354	0.986934	0.989889	0.993132	
994.0	0.979363	0.979693	0.980668	0.982245	0.984362	0.986939	0.989893	0.993134	
995.0	0.979374	0.979703	0.980677	0.982254	0.984369	0.986945	0.989897	0.993137	
996.0	0.979384	0.979714	0.980687	0.982262	0.984376	0.986951	0.989901	0.99314	
997.0	0.979395	0.979724	0.980697	0.982271	0.984384	0.986957	0.989906	0.993142	
998.0	0.979405	0.979734	0.980706	0.98228	0.984391	0.986963	0.98991	0.993145	
999.0	0.979415	0.979744	0.980716	0.982288	0.984398	0.986968	0.989914	0.993148	
1000.0	0.979426	0.979754	0.980725	0.982297	0.984405	0.986974	0.989918	0.99315	
