wavelength	0.0	10.0	20.0	30.0	40.0	50.0	60.0	70.0
251.0	0.288078	0.293807	0.311335	0.341896	0.387968	0.453247	0.542161	0.65947	
252.0	0.287915	0.293598	0.311003	0.341406	0.387344	0.452556	0.54149	0.658912	
253.0	0.287733	0.293366	0.310641	0.34088	0.386682	0.45183	0.54079	0.658334	
254.0	0.287503	0.293084	0.310221	0.340291	0.385956	0.451047	0.540045	0.657725	
255.0	0.287192	0.292718	0.309713	0.339614	0.385153	0.450201	0.539255	0.65709	
256.0	0.286759	0.292231	0.309086	0.338828	0.38426	0.449292	0.538427	0.656437	
257.0	0.286175	0.291594	0.30832	0.337926	0.38328	0.448328	0.537574	0.655781	
258.0	0.285424	0.290797	0.307414	0.336914	0.38223	0.44733	0.536718	0.655141	
259.0	0.284452	0.289788	0.306322	0.335755	0.381071	0.446257	0.535814	0.654478	
260.0	0.283343	0.288653	0.305131	0.334535	0.379889	0.445192	0.53494	0.653855	
261.0	0.282177	0.287469	0.303919	0.333326	0.378748	0.44419	0.534143	0.65331	
262.0	0.280993	0.286277	0.302718	0.332154	0.377666	0.443264	0.533431	0.652849	
263.0	0.279822	0.285103	0.301551	0.331035	0.376652	0.442417	0.532806	0.65247	
264.0	0.278503	0.283785	0.300248	0.329785	0.375512	0.441452	0.53208	0.652016	
265.0	0.276517	0.281795	0.298259	0.327829	0.373649	0.439769	0.530688	0.651018	
266.0	0.274575	0.279853	0.296324	0.325934	0.371854	0.438161	0.529376	0.650097	
267.0	0.272682	0.27796	0.294444	0.324101	0.370127	0.436628	0.528145	0.649251	
268.0	0.270839	0.27612	0.292621	0.322329	0.368467	0.43517	0.526994	0.64848	
269.0	0.269048	0.274333	0.290854	0.320619	0.366875	0.433786	0.525922	0.647779	
270.0	0.267301	0.272591	0.289135	0.318958	0.365334	0.432457	0.524906	0.647128	
271.0	0.265601	0.270897	0.287465	0.317347	0.363846	0.431184	0.523946	0.646522	
272.0	0.263954	0.269256	0.28585	0.315797	0.362423	0.429981	0.523057	0.645975	
273.0	0.262359	0.267668	0.284291	0.314304	0.361064	0.428848	0.522239	0.645484	
274.0	0.260815	0.266132	0.282785	0.31287	0.359767	0.427784	0.521488	0.645043	
275.0	0.259321	0.264647	0.281333	0.311492	0.358534	0.426786	0.5208	0.644646	
276.0	0.257313	0.262643	0.279349	0.309568	0.356748	0.425252	0.51962	0.643839	
277.0	0.254787	0.260116	0.276829	0.307094	0.354406	0.423178	0.517942	0.642615	
278.0	0.252306	0.257635	0.274357	0.304672	0.352123	0.421164	0.516316	0.64142	
279.0	0.249872	0.255201	0.271934	0.302302	0.349895	0.419208	0.514737	0.640248	
280.0	0.247482	0.252812	0.269558	0.299983	0.347723	0.417307	0.513202	0.639096	
281.0	0.245136	0.250468	0.26723	0.297715	0.345606	0.415461	0.51171	0.637963	
282.0	0.242704	0.248037	0.264814	0.295361	0.343409	0.413543	0.510147	0.636758	
283.0	0.239783	0.245115	0.261902	0.292511	0.340727	0.411168	0.508171	0.635209	
284.0	0.236892	0.242223	0.259024	0.289699	0.338088	0.408837	0.506227	0.63367	
285.0	0.234032	0.239364	0.25618	0.286926	0.335495	0.406553	0.504316	0.632141	
286.0	0.231204	0.236538	0.253373	0.284196	0.332951	0.404319	0.502442	0.630624	
287.0	0.22841	0.233746	0.250604	0.281512	0.330461	0.402139	0.500607	0.629122	
288.0	0.225652	0.230992	0.247878	0.278876	0.328027	0.400017	0.498813	0.627635	
289.0	0.222113	0.227453	0.244355	0.275437	0.324799	0.397133	0.496317	0.625558	
290.0	0.21825	0.223588	0.240504	0.271672	0.321254	0.393944	0.493529	0.623217	
291.0	0.214416	0.219755	0.236691	0.267954	0.317763	0.390807	0.490769	0.620872	
292.0	0.21062	0.21596	0.232923	0.26429	0.314336	0.387729	0.488039	0.61852	
293.0	0.206867	0.212211	0.229207	0.260689	0.310981	0.384715	0.48534	0.61616	
294.0	0.203165	0.208517	0.225554	0.257162	0.307707	0.381771	0.482672	0.613788	
295.0	0.199524	0.204885	0.221971	0.253717	0.304522	0.3789	0.480032	0.611398	
296.0	0.194442	0.199802	0.216907	0.248759	0.299809	0.374518	0.475951	0.607761	
297.0	0.189042	0.194398	0.211518	0.243471	0.294754	0.369767	0.471467	0.603728	
298.0	0.183712	0.189066	0.206206	0.238261	0.289766	0.365039	0.466934	0.599588	
299.0	0.178224	0.183579	0.200748	0.232917	0.284643	0.360136	0.462157	0.595164	
300.0	0.171801	0.177163	0.194381	0.226697	0.278666	0.354361	0.456449	0.589818	
301.0	0.16539	0.170758	0.188018	0.220459	0.272616	0.348408	0.450439	0.584106	
302.0	0.159001	0.164372	0.181665	0.214201	0.266477	0.342244	0.444083	0.577982	
303.0	0.152725	0.158116	0.17548	0.208149	0.260527	0.336143	0.437579	0.571535	
304.0	0.146471	0.151888	0.169335	0.202126	0.254526	0.329814	0.430623	0.564499	
305.0	0.140158	0.145589	0.163082	0.195912	0.248181	0.322926	0.422912	0.556645	
306.0	0.133764	0.139196	0.156685	0.18945	0.24141	0.315378	0.414337	0.547867	
307.0	0.127985	0.133437	0.150964	0.183675	0.235221	0.308145	0.405716	0.538754	
308.0	0.122162	0.127617	0.145121	0.177644	0.228552	0.300146	0.396084	0.52855	
309.0	0.116169	0.121602	0.138995	0.171163	0.221178	0.291148	0.385224	0.517063	
310.0	0.109956	0.115335	0.132518	0.164146	0.212999	0.281046	0.373033	0.504185	
311.0	0.101992	0.107293	0.124172	0.155032	0.202282	0.267746	0.356928	0.487067	
312.0	0.096948	0.102206	0.11887	0.149067	0.194791	0.257715	0.344099	0.473037	
313.0	0.095255	0.100521	0.117109	0.146826	0.191209	0.251773	0.33555	0.463268	
314.0	0.094527	0.099807	0.116319	0.14551	0.188432	0.246484	0.327588	0.454125	
315.0	0.09843	0.103848	0.120593	0.149576	0.191146	0.246531	0.324777	0.449998	
316.0	0.105411	0.110963	0.127913	0.156612	0.196754	0.249604	0.325527	0.450014	
317.0	0.11409	0.119727	0.136737	0.164941	0.203528	0.25408	0.328422	0.452929	
318.0	0.125648	0.131353	0.148346	0.175892	0.212757	0.26113	0.334511	0.459686	
319.0	0.148808	0.154655	0.171769	0.198682	0.233752	0.280266	0.353848	0.48046	
320.0	0.169841	0.175651	0.192414	0.218172	0.251345	0.296748	0.371764	0.50043	
321.0	0.18588	0.191515	0.207606	0.231993	0.263571	0.308828	0.386228	0.517163	
322.0	0.20234	0.207741	0.223029	0.246009	0.276354	0.322355	0.40296	0.536063	
323.0	0.224075	0.2292	0.243581	0.26515	0.294699	0.342505	0.427223	0.56193	
324.0	0.243552	0.248359	0.261806	0.282205	0.311734	0.362346	0.45137	0.586875	
325.0	0.256507	0.261014	0.273674	0.293389	0.323748	0.377745	0.470672	0.606412	
326.0	0.269372	0.273617	0.285663	0.305157	0.337103	0.395021	0.491522	0.626601	
327.0	0.285431	0.289461	0.301101	0.320886	0.355217	0.417536	0.517074	0.650112	
328.0	0.303022	0.306914	0.318436	0.339108	0.376524	0.443315	0.544951	0.674666	
329.0	0.320939	0.324795	0.336545	0.358702	0.39968	0.470592	0.573183	0.698577	
330.0	0.339367	0.343301	0.355642	0.379807	0.424567	0.498947	0.601305	0.721561	
331.0	0.359903	0.364038	0.377328	0.403937	0.452452	0.529361	0.630129	0.744299	
332.0	0.383206	0.387661	0.402217	0.431523	0.483416	0.56161	0.659375	0.766613	
333.0	0.40027	0.405135	0.421109	0.452949	0.507373	0.585816	0.680512	0.782228	
334.0	0.413478	0.418792	0.436195	0.47027	0.526487	0.604531	0.696315	0.793591	
335.0	0.427448	0.433218	0.451994	0.487993	0.545396	0.622476	0.711151	0.804125	
336.0	0.44228	0.448489	0.468516	0.506074	0.564085	0.639738	0.725175	0.813983	
337.0	0.457719	0.464329	0.485436	0.524158	0.582258	0.656135	0.738298	0.823127	
338.0	0.47361	0.480567	0.502553	0.54205	0.599792	0.671642	0.750554	0.831604	
339.0	0.489811	0.497052	0.519704	0.55961	0.616625	0.686276	0.762	0.839473	
340.0	0.505851	0.513309	0.536413	0.576401	0.632403	0.699777	0.772451	0.84661	
341.0	0.521159	0.528766	0.552122	0.591917	0.646713	0.711833	0.781676	0.85286	
342.0	0.536386	0.544079	0.567509	0.606878	0.660308	0.723169	0.790303	0.858687	
343.0	0.551421	0.559142	0.582487	0.62124	0.673194	0.733823	0.798372	0.864122	
344.0	0.566165	0.573863	0.596988	0.634977	0.685387	0.743831	0.805924	0.869199	
345.0	0.579964	0.5876	0.610416	0.64757	0.69646	0.752862	0.812713	0.873753	
346.0	0.593004	0.600549	0.622985	0.659252	0.706652	0.761132	0.818913	0.877904	
347.0	0.605631	0.613056	0.635047	0.670376	0.716295	0.768928	0.824748	0.881808	
348.0	0.617802	0.625086	0.646585	0.680944	0.725409	0.776274	0.830238	0.885479	
349.0	0.629478	0.636605	0.65758	0.690962	0.73401	0.78319	0.835404	0.888932	
350.0	0.640639	0.647599	0.668033	0.700442	0.742123	0.789705	0.840268	0.892182	
351.0	0.65128	0.658067	0.677954	0.709407	0.749776	0.795844	0.844852	0.895246	
352.0	0.661407	0.668019	0.687361	0.717884	0.756999	0.801635	0.849177	0.898137	
353.0	0.671035	0.677472	0.696278	0.725901	0.763823	0.807105	0.853263	0.90087	
354.0	0.680183	0.686448	0.704731	0.73349	0.770276	0.812279	0.857131	0.903458	
355.0	0.688558	0.694661	0.712459	0.740423	0.776173	0.817012	0.860675	0.905832	
356.0	0.696463	0.702411	0.719745	0.746955	0.78173	0.821476	0.86402	0.908074	
357.0	0.704006	0.709805	0.726691	0.75318	0.787025	0.825733	0.867214	0.910217	
358.0	0.711217	0.71687	0.733325	0.759124	0.792085	0.829804	0.87027	0.912268	
359.0	0.718129	0.723642	0.739682	0.764819	0.796934	0.833709	0.873205	0.914238	
360.0	0.72477	0.730147	0.745787	0.770288	0.801592	0.837462	0.876026	0.916133	
361.0	0.731159	0.736404	0.751657	0.775546	0.806072	0.841073	0.878742	0.917957	
362.0	0.73731	0.742428	0.757307	0.780605	0.810382	0.844548	0.881357	0.919714	
363.0	0.743234	0.748228	0.762745	0.785473	0.814529	0.847893	0.883874	0.921405	
364.0	0.748938	0.753812	0.767978	0.790158	0.81852	0.851112	0.886297	0.923032	
365.0	0.753086	0.757865	0.771753	0.793501	0.82133	0.853344	0.887951	0.924129	
366.0	0.754	0.758732	0.77249	0.79405	0.821673	0.853507	0.887991	0.92411	
367.0	0.754864	0.759552	0.773184	0.794563	0.821989	0.853651	0.888018	0.924083	
368.0	0.755671	0.760315	0.773827	0.795033	0.822271	0.853771	0.88803	0.924047	
369.0	0.756405	0.761009	0.774405	0.795447	0.822508	0.853857	0.888017	0.923994	
370.0	0.757047	0.761611	0.7749	0.795788	0.822685	0.853898	0.887971	0.923922	
371.0	0.757587	0.762115	0.775304	0.79605	0.822799	0.853889	0.887891	0.923826	
372.0	0.758024	0.762519	0.775615	0.796232	0.822847	0.853831	0.887776	0.923709	
373.0	0.758361	0.762825	0.775837	0.796338	0.822834	0.853727	0.887628	0.92357	
374.0	0.758601	0.763037	0.775973	0.79637	0.822762	0.853577	0.887448	0.923412	
375.0	0.75875	0.763161	0.776029	0.796333	0.822634	0.853386	0.88724	0.923235	
376.0	0.759645	0.764022	0.776792	0.796955	0.823097	0.8537	0.88743	0.923338	
377.0	0.762353	0.76667	0.779267	0.799164	0.824975	0.855213	0.888569	0.924102	
378.0	0.764917	0.769178	0.781612	0.801258	0.826758	0.856652	0.889652	0.92483	
379.0	0.767351	0.771558	0.783839	0.803249	0.828455	0.858022	0.890685	0.925524	
380.0	0.769667	0.773825	0.78596	0.805147	0.830074	0.859333	0.891675	0.92619	
381.0	0.771889	0.775998	0.787997	0.806971	0.831634	0.860597	0.89263	0.926834	
382.0	0.774033	0.778097	0.789964	0.808736	0.833144	0.861823	0.893559	0.927461	
383.0	0.776112	0.780133	0.791874	0.81045	0.834613	0.863017	0.894465	0.928072	
384.0	0.778136	0.782114	0.793733	0.812121	0.836047	0.864185	0.895351	0.928672	
385.0	0.78011	0.784047	0.795548	0.813753	0.83745	0.865328	0.89622	0.929259	
386.0	0.78204	0.785938	0.797324	0.815351	0.838823	0.866448	0.897073	0.929837	
387.0	0.783929	0.787788	0.799063	0.816917	0.84017	0.867548	0.89791	0.930404	
388.0	0.786126	0.789943	0.801095	0.818758	0.841768	0.868864	0.898921	0.931094	
389.0	0.788617	0.792388	0.803409	0.820864	0.843605	0.870387	0.900098	0.9319	
390.0	0.791053	0.79478	0.805671	0.822923	0.8454	0.871875	0.901247	0.932688	
391.0	0.793433	0.797116	0.80788	0.824933	0.847152	0.873327	0.902368	0.933456	
392.0	0.79575	0.799391	0.81003	0.826887	0.848855	0.874737	0.903457	0.934202	
393.0	0.797983	0.801582	0.8121	0.828767	0.850491	0.876091	0.904501	0.934917	
394.0	0.80011	0.803669	0.81407	0.830554	0.852045	0.877376	0.905491	0.935594	
395.0	0.802116	0.805636	0.815925	0.832236	0.853507	0.878583	0.906421	0.93623	
396.0	0.803991	0.807474	0.817658	0.833805	0.854868	0.879706	0.907287	0.936822	
397.0	0.805728	0.809177	0.81926	0.835254	0.856124	0.880742	0.908084	0.937367	
398.0	0.807321	0.810737	0.820727	0.836578	0.857271	0.881686	0.908811	0.937864	
399.0	0.808764	0.812149	0.822053	0.837772	0.858302	0.882535	0.909463	0.938309	
400.0	0.81005	0.813407	0.823231	0.83883	0.859212	0.883283	0.910037	0.938702	
401.0	0.810748	0.814082	0.823844	0.839355	0.85964	0.883614	0.910279	0.93886	
402.0	0.811284	0.814599	0.824305	0.83974	0.859943	0.883841	0.91044	0.938964	
403.0	0.811644	0.81494	0.824598	0.839969	0.860108	0.883953	0.910512	0.939007	
404.0	0.811801	0.815081	0.824697	0.840017	0.860113	0.883931	0.910482	0.938981	
405.0	0.81172	0.814986	0.82457	0.839855	0.859931	0.883754	0.910333	0.938874	
406.0	0.811371	0.814627	0.824188	0.839458	0.859543	0.883407	0.910053	0.938681	
407.0	0.810726	0.813976	0.823525	0.838799	0.858925	0.882871	0.909633	0.938394	
408.0	0.80973	0.812977	0.822529	0.837834	0.85804	0.882118	0.909051	0.938001	
409.0	0.8083	0.81155	0.821123	0.836493	0.856831	0.881106	0.908278	0.937484	
410.0	0.806322	0.809583	0.819203	0.834688	0.855226	0.879783	0.907284	0.936828	
411.0	0.803645	0.80693	0.816636	0.832304	0.853142	0.878094	0.906036	0.936017	
412.0	0.800081	0.803408	0.813261	0.829215	0.850491	0.875993	0.90452	0.935054	
413.0	0.795415	0.798815	0.808908	0.825303	0.847215	0.873474	0.902761	0.93397	
414.0	0.789665	0.793185	0.803658	0.820717	0.843531	0.870791	0.901007	0.932961	
415.0	0.782579	0.786298	0.797378	0.815441	0.839533	0.868105	0.899427	0.93216	
416.0	0.774299	0.778337	0.790361	0.809894	0.835718	0.865904	0.89842	0.931838	
417.0	0.765781	0.7703	0.783694	0.80522	0.833166	0.865075	0.89862	0.932385	
418.0	0.759081	0.764243	0.779385	0.803227	0.83331	0.866597	0.900604	0.934096	
419.0	0.757096	0.762946	0.779844	0.805708	0.83723	0.870953	0.904496	0.936946	
420.0	0.7619	0.768256	0.786299	0.813115	0.844747	0.877658	0.90978	0.940544	
421.0	0.773376	0.779858	0.797984	0.824299	0.854619	0.885642	0.91568	0.944404	
422.0	0.789248	0.795451	0.812634	0.837235	0.865264	0.893813	0.921509	0.948134	
423.0	0.806502	0.812166	0.827791	0.85007	0.875443	0.901417	0.926838	0.951509	
424.0	0.822841	0.82788	0.841789	0.861678	0.884491	0.908098	0.93149	0.954445	
425.0	0.837126	0.841574	0.853894	0.871635	0.892209	0.913785	0.935451	0.956949	
426.0	0.849091	0.853035	0.864007	0.879948	0.898662	0.918557	0.93879	0.959068	
427.0	0.858923	0.862456	0.872334	0.886817	0.904024	0.922548	0.941601	0.960861	
428.0	0.866713	0.869924	0.878945	0.892287	0.90831	0.925752	0.943868	0.962313	
429.0	0.872844	0.875806	0.884162	0.896617	0.911716	0.92831	0.945685	0.963479	
430.0	0.877885	0.88065	0.888478	0.900221	0.914574	0.930474	0.947234	0.964479	
431.0	0.882087	0.884693	0.892096	0.903263	0.917005	0.93233	0.948572	0.965348	
432.0	0.885649	0.888125	0.89518	0.905873	0.919107	0.933947	0.949746	0.966114	
433.0	0.888729	0.891098	0.897862	0.908157	0.92096	0.935383	0.950795	0.966801	
434.0	0.891456	0.893733	0.90025	0.910202	0.922631	0.936687	0.951755	0.967433	
435.0	0.893907	0.896105	0.902406	0.91206	0.924158	0.937887	0.952643	0.96802	
436.0	0.89613	0.898259	0.904371	0.913761	0.925564	0.938999	0.95347	0.968568	
437.0	0.898161	0.900229	0.906174	0.915328	0.926867	0.940034	0.954245	0.969083	
438.0	0.900028	0.902041	0.907837	0.916779	0.92808	0.941003	0.954972	0.969567	
439.0	0.901753	0.903718	0.909379	0.918131	0.929214	0.941913	0.955659	0.970024	
440.0	0.903356	0.905277	0.910816	0.919394	0.930278	0.94277	0.956307	0.970456	
441.0	0.904851	0.906732	0.912161	0.92058	0.93128	0.94358	0.956922	0.970866	
442.0	0.906252	0.908096	0.913423	0.921696	0.932226	0.944347	0.957506	0.971253	
443.0	0.90766	0.909469	0.914698	0.922827	0.933189	0.945131	0.958104	0.971649	
444.0	0.909352	0.911121	0.916238	0.924202	0.934367	0.946093	0.95884	0.972136	
445.0	0.910961	0.912693	0.917706	0.925515	0.935492	0.947014	0.959545	0.9726	
446.0	0.912498	0.914195	0.919109	0.926771	0.936571	0.947899	0.960222	0.973041	
447.0	0.91397	0.915634	0.920454	0.927978	0.937609	0.948749	0.960874	0.973461	
448.0	0.915384	0.917016	0.921748	0.929138	0.938608	0.94957	0.961502	0.973861	
449.0	0.916745	0.918348	0.922995	0.930259	0.939573	0.950363	0.962111	0.97424	
450.0	0.918061	0.919635	0.924201	0.931343	0.940509	0.951133	0.962701	0.974599	
451.0	0.919334	0.920881	0.92537	0.932395	0.941417	0.95188	0.963274	0.974938	
452.0	0.920567	0.922088	0.926503	0.933415	0.942298	0.952607	0.963831	0.975257	
453.0	0.921764	0.923259	0.927602	0.934407	0.943155	0.953313	0.964373	0.975554	
454.0	0.922925	0.924397	0.92867	0.93537	0.943988	0.954	0.964899	0.97583	
455.0	0.924054	0.925502	0.929709	0.936306	0.944798	0.954669	0.96541	0.976086	
456.0	0.925151	0.926576	0.930719	0.937217	0.945586	0.955319	0.965908	0.976326	
457.0	0.926219	0.927622	0.931701	0.938104	0.946353	0.955953	0.966391	0.976557	
458.0	0.927258	0.92864	0.932658	0.938967	0.947099	0.956569	0.966861	0.976786	
459.0	0.92827	0.929631	0.93359	0.939808	0.947825	0.95717	0.967317	0.977023	
460.0	0.929254	0.930595	0.934497	0.940625	0.948531	0.957753	0.967761	0.977278	
461.0	0.930213	0.931535	0.93538	0.941421	0.949218	0.958321	0.968192	0.977557	
462.0	0.931149	0.932452	0.936241	0.942196	0.949885	0.958873	0.968611	0.977862	
463.0	0.932062	0.933346	0.937081	0.942951	0.950534	0.959411	0.96902	0.978191	
464.0	0.932953	0.934218	0.937899	0.943686	0.951164	0.959935	0.969419	0.978534	
465.0	0.933822	0.935069	0.938698	0.944401	0.951776	0.960446	0.969807	0.978881	
466.0	0.93467	0.935899	0.939475	0.945095	0.95237	0.960944	0.970186	0.979224	
467.0	0.935498	0.93671	0.940232	0.945769	0.952947	0.96143	0.970554	0.979554	
468.0	0.936306	0.937499	0.940969	0.946423	0.953507	0.961905	0.970911	0.979866	
469.0	0.937093	0.938268	0.941685	0.947055	0.954054	0.96237	0.971257	0.980156	
470.0	0.93786	0.939016	0.942379	0.947667	0.95459	0.962825	0.97159	0.980423	
471.0	0.938605	0.939743	0.94305	0.948259	0.955118	0.963269	0.971909	0.980666	
472.0	0.939328	0.940447	0.943699	0.948833	0.955642	0.963701	0.972214	0.980885	
473.0	0.940028	0.941128	0.944325	0.949393	0.956163	0.964121	0.972504	0.98108	
474.0	0.940705	0.941785	0.944928	0.949944	0.956683	0.964528	0.972778	0.981251	
475.0	0.941357	0.942417	0.945511	0.950492	0.9572	0.96492	0.973035	0.981397	
476.0	0.941983	0.943025	0.946077	0.951044	0.957711	0.965298	0.973275	0.981518	
477.0	0.942565	0.943591	0.946616	0.951587	0.958198	0.965648	0.973486	0.981604	
478.0	0.942949	0.943967	0.946992	0.951991	0.958542	0.965874	0.973594	0.981606	
479.0	0.943323	0.944339	0.947382	0.952403	0.958874	0.966086	0.973682	0.981576	
480.0	0.943696	0.944717	0.947791	0.952817	0.959192	0.966283	0.973747	0.98151	
481.0	0.944079	0.945111	0.94822	0.953225	0.959494	0.966464	0.973787	0.981405	
482.0	0.944481	0.945529	0.948664	0.953623	0.959782	0.966628	0.973799	0.981253	
483.0	0.944908	0.94597	0.949114	0.954006	0.960054	0.966773	0.973779	0.981048	
484.0	0.945361	0.946432	0.949563	0.954373	0.96031	0.966899	0.973723	0.980781	
485.0	0.945832	0.946903	0.950001	0.954723	0.960551	0.967002	0.973627	0.98044	
486.0	0.946312	0.947374	0.950424	0.955055	0.960776	0.967082	0.973483	0.980013	
487.0	0.946789	0.947836	0.950829	0.955371	0.960984	0.967135	0.973287	0.979482	
488.0	0.947254	0.948282	0.951215	0.955671	0.961174	0.967159	0.973028	0.978827	
489.0	0.947702	0.948709	0.951583	0.955955	0.961346	0.967151	0.972698	0.978021	
490.0	0.94813	0.949116	0.951933	0.956223	0.961498	0.967106	0.972285	0.977032	
491.0	0.948537	0.949503	0.952266	0.956476	0.96163	0.96702	0.971775	0.975817	
492.0	0.948925	0.949872	0.952583	0.956713	0.961739	0.966889	0.97115	0.974324	
493.0	0.949295	0.950224	0.952884	0.956934	0.961824	0.966706	0.97039	0.972481	
494.0	0.949647	0.950559	0.953171	0.957138	0.961882	0.966464	0.96947	0.970201	
495.0	0.949984	0.950879	0.953443	0.957325	0.961912	0.966156	0.968358	0.967363	
496.0	0.950307	0.951186	0.953703	0.957496	0.96191	0.965771	0.967013	0.963803	
497.0	0.95063	0.951493	0.953959	0.957657	0.961882	0.965301	0.965369	0.959221	
498.0	0.950938	0.951785	0.954201	0.957798	0.961814	0.964726	0.963368	0.953359	
499.0	0.951232	0.952062	0.954426	0.957916	0.961702	0.96403	0.960926	0.945796	
500.0	0.951512	0.952326	0.954635	0.95801	0.96154	0.96319	0.957936	0.935962	
501.0	0.951778	0.952575	0.954827	0.958078	0.961322	0.962183	0.954257	0.923101	
502.0	0.95203	0.952809	0.955	0.958117	0.961041	0.960978	0.949706	0.906249	
503.0	0.952268	0.953027	0.955154	0.958124	0.960689	0.959537	0.944041	0.884301	
504.0	0.95249	0.95323	0.955288	0.958097	0.960255	0.957814	0.936943	0.856318	
505.0	0.952697	0.953415	0.955399	0.958032	0.959729	0.955753	0.927995	0.822328	
506.0	0.952887	0.953583	0.955487	0.957925	0.959096	0.953282	0.916632	0.784749	
507.0	0.95306	0.953732	0.955549	0.957771	0.958341	0.950311	0.902133	0.749919	
508.0	0.953215	0.95386	0.955583	0.957566	0.957444	0.946729	0.883586	0.72712	
509.0	0.95335	0.953967	0.955587	0.957302	0.956384	0.942391	0.859902	0.723327	
510.0	0.953464	0.954051	0.955557	0.956973	0.955131	0.937114	0.829989	0.737921	
511.0	0.953555	0.954109	0.955491	0.956571	0.953654	0.930664	0.793182	0.763848	
512.0	0.953623	0.95414	0.955385	0.956086	0.951912	0.922735	0.750138	0.793297	
513.0	0.953664	0.954141	0.955234	0.955507	0.949858	0.912936	0.70425	0.821235	
514.0	0.953676	0.95411	0.955034	0.954822	0.947432	0.900767	0.66265	0.845528	
515.0	0.953658	0.954043	0.95478	0.954014	0.94456	0.885584	0.63484	0.865797	
516.0	0.953606	0.953938	0.954465	0.953067	0.941154	0.866595	0.62797	0.882412	
517.0	0.953518	0.953791	0.954084	0.951964	0.937121	0.843025	0.641867	0.895851	
518.0	0.953391	0.953599	0.953631	0.950687	0.932352	0.814111	0.669691	0.906713	
519.0	0.953221	0.953356	0.953094	0.9492	0.926651	0.778868	0.703873	0.915694	
520.0	0.953001	0.953056	0.952462	0.947469	0.919812	0.737133	0.738437	0.923175	
521.0	0.952728	0.952692	0.951724	0.945456	0.911574	0.690154	0.770104	0.929457	
522.0	0.952396	0.952258	0.950864	0.943111	0.901606	0.641521	0.797657	0.934777	
523.0	0.951997	0.951745	0.949867	0.940376	0.889498	0.59768	0.821007	0.93932	
524.0	0.951524	0.951144	0.948714	0.937181	0.874741	0.566683	0.840569	0.943231	
525.0	0.950969	0.950444	0.947382	0.933441	0.85672	0.554902	0.856904	0.946621	
526.0	0.950322	0.949633	0.945844	0.92905	0.834698	0.563632	0.870576	0.949583	
527.0	0.949572	0.948695	0.944069	0.923881	0.80789	0.588702	0.882066	0.952186	
528.0	0.948705	0.947614	0.942021	0.917775	0.775523	0.623262	0.891784	0.954488	
529.0	0.947706	0.946371	0.939655	0.910539	0.737112	0.660965	0.900055	0.956536	
530.0	0.946558	0.944943	0.936919	0.901931	0.692839	0.697555	0.907146	0.958368	
531.0	0.94524	0.943303	0.93375	0.891654	0.64422	0.730823	0.913268	0.960015	
532.0	0.943729	0.94142	0.930071	0.879346	0.594769	0.759986	0.918587	0.961502	
533.0	0.941996	0.939256	0.925793	0.864565	0.550191	0.785058	0.923238	0.962851	
534.0	0.940009	0.936768	0.920804	0.846778	0.517368	0.806423	0.927331	0.964079	
535.0	0.93773	0.933903	0.914968	0.825368	0.501977	0.82458	0.930954	0.965202	
536.0	0.935112	0.930599	0.908122	0.799662	0.505941	0.840025	0.934177	0.966232	
537.0	0.932101	0.926783	0.900067	0.768991	0.52669	0.853206	0.937059	0.96718	
538.0	0.928633	0.922364	0.890557	0.732839	0.558777	0.864508	0.93965	0.968056	
539.0	0.924629	0.917233	0.879295	0.691106	0.596347	0.874251	0.941988	0.968868	
540.0	0.920086	0.911339	0.865906	0.643706	0.635701	0.883128	0.9443	0.969722	
541.0	0.914801	0.904434	0.849891	0.593141	0.673243	0.890905	0.946426	0.970529	
542.0	0.908619	0.896307	0.830699	0.543532	0.707304	0.897718	0.948368	0.971283	
543.0	0.901373	0.886714	0.80771	0.500777	0.737344	0.903717	0.950149	0.97199	
544.0	0.892849	0.87535	0.780234	0.471326	0.763441	0.90903	0.951788	0.972654	
545.0	0.882794	0.861855	0.747616	0.459963	0.785935	0.913759	0.953301	0.973279	
546.0	0.870896	0.84579	0.709374	0.467729	0.805272	0.917988	0.954702	0.973868	
547.0	0.856775	0.82663	0.665459	0.491671	0.821912	0.921788	0.956003	0.974425	
548.0	0.839981	0.803782	0.616718	0.526425	0.836264	0.925218	0.957215	0.974952	
549.0	0.819985	0.776599	0.56538	0.566386	0.848688	0.928326	0.958346	0.975452	
550.0	0.796183	0.744438	0.515441	0.607157	0.859495	0.931154	0.959405	0.975927	
551.0	0.767928	0.706803	0.472512	0.645933	0.86894	0.933737	0.960399	0.97638	
552.0	0.734613	0.663577	0.442656	0.681273	0.877234	0.936104	0.961333	0.976811	
553.0	0.695802	0.615388	0.430382	0.712667	0.884553	0.93828	0.962212	0.977222	
554.0	0.651484	0.564059	0.436862	0.740157	0.891046	0.940287	0.963043	0.977615	
555.0	0.602463	0.513044	0.459592	0.764045	0.896832	0.942145	0.963828	0.977991	
556.0	0.550814	0.467412	0.493684	0.784741	0.902011	0.943868	0.964572	0.978352	
557.0	0.500233	0.433035	0.533778	0.80267	0.906667	0.945471	0.965279	0.978698	
558.0	0.455923	0.414894	0.575449	0.818233	0.910871	0.946967	0.96595	0.97903	
559.0	0.423671	0.415252	0.615701	0.831783	0.914681	0.948364	0.966589	0.97935	
560.0	0.408093	0.43282	0.652872	0.843626	0.918147	0.949674	0.967198	0.979657	
561.0	0.410938	0.463512	0.68626	0.854022	0.921312	0.950904	0.96778	0.979954	
562.0	0.430495	0.502142	0.715754	0.863186	0.924212	0.952061	0.968336	0.98024	
563.0	0.4625	0.543981	0.741574	0.871303	0.926877	0.953153	0.968868	0.980515	
564.0	0.502027	0.585637	0.764014	0.87844	0.929271	0.954137	0.969346	0.980761	
565.0	0.544415	0.624855	0.78342	0.88469	0.931388	0.954999	0.969755	0.980966	
566.0	0.585977	0.660396	0.800275	0.890282	0.933346	0.955813	0.970146	0.981164	
567.0	0.62478	0.691972	0.814955	0.895306	0.93516	0.956583	0.970521	0.981356	
568.0	0.659921	0.719712	0.827786	0.899838	0.936845	0.957314	0.970881	0.981541	
569.0	0.691162	0.743941	0.839047	0.903942	0.938416	0.958008	0.971227	0.98172	
570.0	0.718631	0.765053	0.848968	0.907672	0.939882	0.958667	0.97156	0.981893	
571.0	0.742651	0.783451	0.857746	0.911072	0.941253	0.959295	0.97188	0.982061	
572.0	0.76362	0.799521	0.86555	0.914183	0.942538	0.959893	0.972189	0.982224	
573.0	0.781921	0.813588	0.872513	0.917038	0.943746	0.960464	0.972487	0.982382	
574.0	0.797928	0.82595	0.878753	0.919665	0.944882	0.96101	0.972774	0.982535	
575.0	0.811964	0.836851	0.884366	0.92209	0.945954	0.961532	0.973051	0.982684	
576.0	0.824312	0.846502	0.889434	0.924334	0.946965	0.962033	0.973319	0.982829	
577.0	0.835216	0.855082	0.894028	0.926416	0.947922	0.962513	0.973579	0.982969	
578.0	0.844882	0.86274	0.898205	0.928351	0.948829	0.962973	0.97383	0.983106	
579.0	0.853483	0.8696	0.902015	0.930155	0.949689	0.963416	0.974073	0.98324	
580.0	0.861168	0.875769	0.905503	0.93184	0.950506	0.963841	0.974309	0.98337	
581.0	0.868059	0.881338	0.908704	0.933418	0.951283	0.964251	0.974538	0.983496	
582.0	0.874261	0.886383	0.91165	0.934897	0.952024	0.964645	0.97476	0.983619	
583.0	0.879865	0.890969	0.914371	0.936286	0.952731	0.965026	0.974975	0.98374	
584.0	0.884945	0.89515	0.916888	0.937594	0.953405	0.965393	0.975185	0.983857	
585.0	0.889565	0.898974	0.919223	0.938828	0.95405	0.965748	0.975389	0.983972	
586.0	0.893781	0.902482	0.921394	0.939993	0.954667	0.966091	0.975587	0.984084	
587.0	0.897639	0.90571	0.923417	0.941094	0.955259	0.966423	0.97578	0.984193	
588.0	0.90118	0.908687	0.925306	0.942138	0.955826	0.966744	0.975968	0.9843	
589.0	0.90444	0.911441	0.927075	0.943129	0.956371	0.967055	0.976151	0.984405	
590.0	0.907447	0.913993	0.928732	0.944069	0.956895	0.967356	0.97633	0.984507	
591.0	0.910128	0.916267	0.930203	0.944892	0.95734	0.967603	0.97647	0.984585	
592.0	0.912543	0.918318	0.931529	0.945627	0.957729	0.967812	0.976585	0.984646	
593.0	0.914783	0.920226	0.932774	0.946326	0.958103	0.968014	0.976696	0.984706	
594.0	0.916865	0.922008	0.933947	0.946991	0.958463	0.96821	0.976805	0.984765	
595.0	0.918804	0.923672	0.935053	0.947624	0.958808	0.9684	0.97691	0.984822	
596.0	0.920614	0.925231	0.936097	0.948229	0.959141	0.968584	0.977013	0.984878	
597.0	0.922305	0.926693	0.937085	0.948806	0.959462	0.968762	0.977114	0.984933	
598.0	0.92389	0.928067	0.938021	0.949358	0.959771	0.968936	0.977212	0.984986	
599.0	0.925378	0.92936	0.938908	0.949886	0.960069	0.969104	0.977307	0.985039	
600.0	0.926776	0.930579	0.93975	0.950392	0.960357	0.969267	0.977401	0.98509	
601.0	0.928091	0.93173	0.940551	0.950876	0.960635	0.969426	0.977492	0.98514	
602.0	0.929332	0.932818	0.941313	0.951342	0.960904	0.969581	0.977581	0.985189	
603.0	0.930504	0.933847	0.942039	0.951788	0.961165	0.969732	0.977668	0.985238	
604.0	0.931611	0.934824	0.942731	0.952218	0.961416	0.969878	0.977753	0.985285	
605.0	0.93266	0.93575	0.943393	0.952631	0.96166	0.970021	0.977836	0.985332	
606.0	0.933655	0.936631	0.944025	0.953029	0.961897	0.97016	0.977918	0.985377	
607.0	0.934599	0.937469	0.944629	0.953412	0.962126	0.970295	0.977998	0.985422	
608.0	0.935497	0.938266	0.945208	0.953781	0.962349	0.970428	0.978076	0.985466	
609.0	0.93635	0.939027	0.945764	0.954137	0.962565	0.970557	0.978152	0.985509	
610.0	0.937164	0.939754	0.946296	0.954481	0.962774	0.970683	0.978227	0.985552	
611.0	0.93794	0.940447	0.946807	0.954814	0.962978	0.970806	0.978301	0.985593	
612.0	0.93868	0.941111	0.947299	0.955135	0.963177	0.970926	0.978373	0.985634	
613.0	0.939388	0.941746	0.947772	0.955446	0.963369	0.971043	0.978444	0.985674	
614.0	0.940065	0.942355	0.948226	0.955746	0.963557	0.971158	0.978513	0.985714	
615.0	0.940713	0.942939	0.948664	0.956038	0.96374	0.971271	0.978581	0.985753	
616.0	0.941334	0.943499	0.949087	0.95632	0.963918	0.971381	0.978648	0.985791	
617.0	0.94193	0.944038	0.949494	0.956594	0.964091	0.971488	0.978713	0.985829	
618.0	0.942502	0.944555	0.949887	0.956859	0.96426	0.971593	0.978778	0.985866	
619.0	0.943051	0.945053	0.950267	0.957117	0.964425	0.971697	0.978841	0.985903	
620.0	0.94359	0.945543	0.950643	0.957375	0.964592	0.971802	0.978906	0.98594	
621.0	0.944203	0.946104	0.951082	0.957685	0.9648	0.971939	0.978995	0.985994	
622.0	0.944793	0.946644	0.951507	0.957987	0.965004	0.972074	0.979081	0.986046	
623.0	0.94536	0.947164	0.951917	0.95828	0.965203	0.972206	0.979167	0.986097	
624.0	0.945906	0.947666	0.952315	0.958565	0.965397	0.972335	0.979251	0.986148	
625.0	0.946433	0.94815	0.9527	0.958842	0.965587	0.972462	0.979333	0.986198	
626.0	0.94694	0.948618	0.953072	0.959111	0.965772	0.972586	0.979414	0.986247	
627.0	0.947429	0.949069	0.953433	0.959373	0.965953	0.972708	0.979494	0.986295	
628.0	0.947902	0.949506	0.953784	0.959629	0.96613	0.972828	0.979572	0.986343	
629.0	0.948359	0.949928	0.954124	0.959878	0.966303	0.972945	0.97965	0.98639	
630.0	0.948801	0.950337	0.954454	0.96012	0.966473	0.97306	0.979726	0.986436	
631.0	0.949228	0.950733	0.954774	0.960357	0.966639	0.973174	0.9798	0.986482	
632.0	0.949642	0.951117	0.955086	0.960588	0.966801	0.973285	0.979874	0.986527	
633.0	0.950043	0.951489	0.955389	0.960813	0.96696	0.973394	0.979946	0.986571	
634.0	0.950431	0.95185	0.955684	0.961033	0.967116	0.973501	0.980018	0.986615	
635.0	0.950808	0.9522	0.955971	0.961248	0.967268	0.973606	0.980088	0.986658	
636.0	0.951174	0.952541	0.95625	0.961457	0.967418	0.97371	0.980157	0.9867	
637.0	0.951529	0.952872	0.956523	0.961662	0.967565	0.973812	0.980225	0.986743	
638.0	0.951873	0.953194	0.956788	0.961863	0.967709	0.973912	0.980292	0.986784	
639.0	0.952208	0.953506	0.957047	0.962059	0.96785	0.974011	0.980359	0.986825	
640.0	0.952534	0.953811	0.957299	0.962251	0.967989	0.974108	0.980424	0.986865	
641.0	0.952851	0.954107	0.957545	0.962439	0.968125	0.974203	0.980488	0.986905	
642.0	0.953159	0.954396	0.957785	0.962623	0.968258	0.974297	0.980552	0.986944	
643.0	0.95346	0.954678	0.95802	0.962803	0.96839	0.974389	0.980614	0.986983	
644.0	0.953752	0.954952	0.95825	0.962979	0.968519	0.974481	0.980676	0.987022	
645.0	0.954037	0.955219	0.958474	0.963152	0.968645	0.97457	0.980737	0.987059	
646.0	0.954315	0.95548	0.958693	0.963321	0.96877	0.974658	0.980797	0.987097	
647.0	0.954586	0.955735	0.958907	0.963488	0.968892	0.974746	0.980857	0.987134	
648.0	0.954851	0.955984	0.959117	0.96365	0.969012	0.974831	0.980915	0.98717	
649.0	0.955109	0.956227	0.959322	0.96381	0.969131	0.974916	0.980973	0.987207	
650.0	0.955361	0.956464	0.959523	0.963967	0.969247	0.974999	0.98103	0.987242	
651.0	0.955607	0.956696	0.95972	0.964121	0.969362	0.975081	0.981086	0.987278	
652.0	0.955847	0.956923	0.959912	0.964272	0.969474	0.975163	0.981142	0.987313	
653.0	0.95612	0.957182	0.960135	0.964451	0.969611	0.975263	0.981213	0.987358	
654.0	0.956442	0.957489	0.960404	0.964672	0.969784	0.975394	0.981307	0.987418	
655.0	0.956758	0.95779	0.960667	0.964888	0.969955	0.975523	0.9814	0.987479	
656.0	0.957067	0.958085	0.960926	0.965102	0.970123	0.975651	0.981491	0.987538	
657.0	0.95737	0.958374	0.96118	0.965311	0.970288	0.975776	0.981582	0.987597	
658.0	0.957666	0.958658	0.96143	0.965517	0.970451	0.9759	0.981671	0.987655	
659.0	0.957957	0.958935	0.961675	0.96572	0.970612	0.976022	0.981759	0.987712	
660.0	0.958242	0.959208	0.961915	0.96592	0.97077	0.976143	0.981846	0.987768	
661.0	0.958522	0.959476	0.962151	0.966116	0.970926	0.976262	0.981932	0.987824	
662.0	0.958796	0.959738	0.962384	0.966309	0.97108	0.976379	0.982017	0.98788	
663.0	0.959065	0.959996	0.962612	0.9665	0.971231	0.976495	0.982101	0.987934	
664.0	0.959329	0.960249	0.962836	0.966687	0.971381	0.97661	0.982184	0.987988	
665.0	0.959589	0.960498	0.963057	0.966871	0.971528	0.976723	0.982266	0.988042	
666.0	0.959843	0.960742	0.963274	0.967053	0.971673	0.976835	0.982347	0.988095	
667.0	0.960093	0.960982	0.963488	0.967232	0.971817	0.976945	0.982427	0.988147	
668.0	0.960339	0.961218	0.963697	0.967408	0.971958	0.977054	0.982506	0.988199	
669.0	0.960581	0.96145	0.963904	0.967582	0.972098	0.977161	0.982584	0.98825	
670.0	0.960818	0.961678	0.964108	0.967753	0.972235	0.977267	0.982662	0.9883	
671.0	0.961051	0.961902	0.964308	0.967921	0.972371	0.977372	0.982738	0.98835	
672.0	0.961281	0.962122	0.964505	0.968088	0.972506	0.977476	0.982814	0.9884	
673.0	0.961506	0.96234	0.964699	0.968252	0.972638	0.977578	0.982888	0.988449	
674.0	0.961728	0.962553	0.96489	0.968413	0.972769	0.97768	0.982962	0.988497	
675.0	0.961946	0.962763	0.965079	0.968573	0.972898	0.97778	0.983035	0.988545	
676.0	0.962161	0.96297	0.965264	0.96873	0.973025	0.977879	0.983108	0.988592	
677.0	0.962372	0.963173	0.965447	0.968885	0.973151	0.977976	0.983179	0.988639	
678.0	0.96258	0.963374	0.965627	0.969038	0.973275	0.978073	0.98325	0.988686	
679.0	0.962785	0.963571	0.965805	0.969189	0.973398	0.978169	0.98332	0.988732	
680.0	0.962987	0.963766	0.96598	0.969339	0.97352	0.978263	0.983389	0.988777	
681.0	0.963186	0.963957	0.966152	0.969486	0.973639	0.978356	0.983458	0.988822	
682.0	0.963381	0.964146	0.966323	0.969631	0.973758	0.978449	0.983526	0.988867	
683.0	0.963574	0.964332	0.96649	0.969774	0.973875	0.97854	0.983593	0.988911	
684.0	0.963764	0.964515	0.966656	0.969916	0.973991	0.978631	0.983659	0.988955	
685.0	0.963951	0.964696	0.966819	0.970056	0.974105	0.97872	0.983725	0.988998	
686.0	0.964136	0.964874	0.96698	0.970194	0.974218	0.978808	0.98379	0.989041	
687.0	0.964318	0.96505	0.967139	0.97033	0.97433	0.978896	0.983855	0.989083	
688.0	0.964497	0.965223	0.967296	0.970464	0.97444	0.978982	0.983918	0.989125	
689.0	0.964664	0.965384	0.967442	0.970589	0.974542	0.979062	0.983977	0.989164	
690.0	0.964789	0.965504	0.967549	0.970679	0.974614	0.979117	0.984017	0.98919	
691.0	0.964912	0.965623	0.967655	0.970769	0.974686	0.979172	0.984056	0.989215	
692.0	0.965034	0.96574	0.96776	0.970857	0.974756	0.979226	0.984096	0.989241	
693.0	0.965154	0.965855	0.967863	0.970944	0.974826	0.97928	0.984134	0.989266	
694.0	0.965272	0.965969	0.967965	0.97103	0.974895	0.979333	0.984173	0.989291	
695.0	0.965389	0.966081	0.968066	0.971115	0.974964	0.979386	0.984211	0.989316	
696.0	0.965504	0.966192	0.968165	0.971199	0.975031	0.979438	0.984249	0.98934	
697.0	0.965618	0.966302	0.968264	0.971282	0.975099	0.97949	0.984286	0.989365	
698.0	0.96573	0.96641	0.968361	0.971364	0.975165	0.979541	0.984323	0.989389	
699.0	0.965841	0.966517	0.968457	0.971446	0.975231	0.979591	0.98436	0.989413	
700.0	0.96595	0.966622	0.968552	0.971526	0.975296	0.979642	0.984397	0.989437	
701.0	0.966058	0.966726	0.968646	0.971606	0.97536	0.979692	0.984433	0.98946	
702.0	0.966165	0.966829	0.968738	0.971685	0.975424	0.979741	0.984469	0.989484	
703.0	0.966271	0.966931	0.96883	0.971763	0.975487	0.97979	0.984504	0.989507	
704.0	0.966375	0.967032	0.968921	0.97184	0.97555	0.979838	0.98454	0.98953	
705.0	0.966478	0.967131	0.96901	0.971916	0.975612	0.979886	0.984575	0.989553	
706.0	0.96658	0.967229	0.969099	0.971992	0.975673	0.979934	0.984609	0.989576	
707.0	0.96668	0.967326	0.969187	0.972067	0.975734	0.979981	0.984644	0.989598	
708.0	0.96678	0.967422	0.969273	0.972141	0.975795	0.980028	0.984678	0.989621	
709.0	0.966878	0.967517	0.969359	0.972214	0.975855	0.980075	0.984712	0.989643	
710.0	0.966975	0.967611	0.969444	0.972287	0.975914	0.980121	0.984746	0.989665	
711.0	0.967072	0.967704	0.969528	0.972359	0.975972	0.980166	0.984779	0.989687	
712.0	0.967167	0.967796	0.969612	0.97243	0.976031	0.980212	0.984812	0.989708	
713.0	0.967261	0.967887	0.969694	0.972501	0.976088	0.980257	0.984845	0.98973	
714.0	0.967354	0.967977	0.969775	0.972571	0.976146	0.980301	0.984878	0.989751	
715.0	0.967445	0.968066	0.969856	0.97264	0.976202	0.980345	0.98491	0.989773	
716.0	0.967537	0.968154	0.969936	0.972708	0.976258	0.980389	0.984942	0.989794	
717.0	0.967627	0.968241	0.970015	0.972777	0.976314	0.980433	0.984974	0.989814	
718.0	0.967716	0.968327	0.970093	0.972844	0.976369	0.980476	0.985006	0.989835	
719.0	0.967804	0.968412	0.970171	0.972911	0.976424	0.980519	0.985038	0.989856	
720.0	0.967891	0.968497	0.970248	0.972977	0.976478	0.980561	0.985069	0.989877	
721.0	0.967978	0.96858	0.970324	0.973042	0.976532	0.980604	0.9851	0.989897	
722.0	0.968063	0.968663	0.970399	0.973107	0.976586	0.980645	0.98513	0.989917	
723.0	0.968148	0.968745	0.970473	0.973171	0.976639	0.980687	0.985161	0.989937	
724.0	0.968231	0.968826	0.970547	0.973235	0.976691	0.980728	0.985191	0.989957	
725.0	0.968314	0.968906	0.970621	0.973299	0.976743	0.980769	0.985222	0.989977	
726.0	0.968396	0.968986	0.970693	0.973361	0.976795	0.98081	0.985251	0.989996	
727.0	0.968477	0.969064	0.970765	0.973423	0.976846	0.98085	0.985281	0.990016	
728.0	0.968558	0.969142	0.970836	0.973485	0.976897	0.98089	0.98531	0.990035	
729.0	0.968638	0.96922	0.970907	0.973546	0.976947	0.98093	0.98534	0.990055	
730.0	0.968773	0.969351	0.971028	0.973654	0.977039	0.981003	0.985395	0.990091	
731.0	0.96893	0.969505	0.971171	0.97378	0.977146	0.98109	0.98546	0.990135	
732.0	0.969086	0.969656	0.971312	0.973905	0.977252	0.981176	0.985525	0.990179	
733.0	0.96924	0.969806	0.971451	0.974029	0.977358	0.981261	0.98559	0.990222	
734.0	0.969392	0.969955	0.97159	0.974152	0.977462	0.981345	0.985653	0.990265	
735.0	0.969542	0.970102	0.971726	0.974274	0.977566	0.981429	0.985717	0.990307	
736.0	0.969692	0.970248	0.971862	0.974394	0.977668	0.981512	0.985779	0.990349	
737.0	0.969839	0.970392	0.971996	0.974513	0.977769	0.981594	0.985841	0.990391	
738.0	0.969985	0.970534	0.972128	0.974631	0.97787	0.981676	0.985903	0.990432	
739.0	0.97013	0.970675	0.97226	0.974748	0.97797	0.981756	0.985964	0.990473	
740.0	0.970273	0.970815	0.97239	0.974864	0.978068	0.981836	0.986024	0.990513	
741.0	0.970414	0.970953	0.972518	0.974979	0.978166	0.981916	0.986084	0.990554	
742.0	0.970554	0.97109	0.972646	0.975092	0.978263	0.981994	0.986144	0.990593	
743.0	0.970693	0.971225	0.972772	0.975205	0.978359	0.982072	0.986203	0.990633	
744.0	0.970831	0.971359	0.972897	0.975316	0.978454	0.982149	0.986261	0.990672	
745.0	0.970967	0.971492	0.973021	0.975427	0.978548	0.982226	0.986319	0.990711	
746.0	0.971101	0.971623	0.973143	0.975536	0.978642	0.982302	0.986376	0.99075	
747.0	0.971234	0.971754	0.973265	0.975644	0.978734	0.982377	0.986433	0.990788	
748.0	0.971367	0.971883	0.973385	0.975752	0.978826	0.982451	0.98649	0.990826	
749.0	0.971497	0.97201	0.973504	0.975858	0.978917	0.982525	0.986546	0.990863	
750.0	0.971627	0.972137	0.973622	0.975964	0.979007	0.982598	0.986601	0.990901	
751.0	0.971755	0.972262	0.973739	0.976068	0.979096	0.982671	0.986656	0.990938	
752.0	0.971882	0.972386	0.973855	0.976171	0.979185	0.982743	0.986711	0.990974	
753.0	0.972007	0.972509	0.97397	0.976274	0.979273	0.982814	0.986765	0.991011	
754.0	0.972132	0.972631	0.974083	0.976376	0.97936	0.982885	0.986819	0.991047	
755.0	0.972255	0.972751	0.974196	0.976477	0.979446	0.982955	0.986872	0.991083	
756.0	0.972378	0.972871	0.974308	0.976577	0.979531	0.983025	0.986925	0.991118	
757.0	0.972499	0.972989	0.974418	0.976675	0.979616	0.983094	0.986977	0.991153	
758.0	0.972619	0.973106	0.974528	0.976774	0.9797	0.983162	0.987029	0.991188	
759.0	0.972738	0.973223	0.974636	0.976871	0.979784	0.98323	0.987081	0.991223	
760.0	0.972855	0.973338	0.974744	0.976967	0.979866	0.983297	0.987132	0.991257	
761.0	0.972972	0.973452	0.974851	0.977063	0.979948	0.983364	0.987182	0.991291	
762.0	0.973088	0.973565	0.974956	0.977157	0.980029	0.98343	0.987233	0.991325	
763.0	0.973202	0.973677	0.975061	0.977251	0.98011	0.983496	0.987283	0.991359	
764.0	0.973316	0.973788	0.975165	0.977345	0.98019	0.983561	0.987332	0.991392	
765.0	0.973428	0.973898	0.975268	0.977437	0.980269	0.983626	0.987381	0.991425	
766.0	0.97354	0.974007	0.97537	0.977529	0.980348	0.98369	0.98743	0.991458	
767.0	0.97365	0.974115	0.975471	0.977619	0.980425	0.983754	0.987478	0.99149	
768.0	0.97376	0.974222	0.975572	0.977709	0.980503	0.983817	0.987526	0.991523	
769.0	0.973868	0.974328	0.975671	0.977798	0.980579	0.983879	0.987574	0.991555	
770.0	0.973976	0.974434	0.97577	0.977887	0.980655	0.983941	0.987621	0.991586	
771.0	0.974083	0.974538	0.975868	0.977975	0.980731	0.984003	0.987668	0.991618	
772.0	0.974188	0.974641	0.975965	0.978062	0.980806	0.984064	0.987714	0.991649	
773.0	0.974293	0.974744	0.976061	0.978148	0.98088	0.984125	0.98776	0.99168	
774.0	0.974397	0.974846	0.976156	0.978234	0.980954	0.984185	0.987806	0.991711	
775.0	0.974499	0.974946	0.97625	0.978318	0.981026	0.984244	0.987851	0.991741	
776.0	0.97459	0.975035	0.976333	0.978392	0.98109	0.984295	0.98789	0.991768	
777.0	0.97468	0.975123	0.976415	0.978466	0.981153	0.984347	0.987929	0.991794	
778.0	0.97477	0.97521	0.976497	0.978539	0.981215	0.984398	0.987968	0.99182	
779.0	0.974858	0.975297	0.976578	0.978612	0.981277	0.984448	0.988006	0.991845	
780.0	0.974946	0.975383	0.976658	0.978683	0.981339	0.984498	0.988044	0.991871	
781.0	0.975033	0.975468	0.976737	0.978755	0.9814	0.984548	0.988082	0.991896	
782.0	0.97512	0.975552	0.976817	0.978825	0.981461	0.984597	0.988119	0.991921	
783.0	0.975205	0.975635	0.976895	0.978895	0.981521	0.984646	0.988156	0.991946	
784.0	0.97529	0.975718	0.976972	0.978965	0.98158	0.984695	0.988193	0.991971	
785.0	0.975374	0.9758	0.977049	0.979034	0.981639	0.984743	0.98823	0.991996	
786.0	0.975457	0.975882	0.977125	0.979102	0.981698	0.984791	0.988266	0.99202	
787.0	0.975539	0.975963	0.977201	0.97917	0.981756	0.984838	0.988302	0.992044	
788.0	0.975621	0.976042	0.977276	0.979237	0.981814	0.984885	0.988338	0.992068	
789.0	0.975702	0.976122	0.97735	0.979304	0.981871	0.984932	0.988373	0.992092	
790.0	0.975783	0.976201	0.977424	0.97937	0.981928	0.984978	0.988408	0.992116	
791.0	0.975862	0.976279	0.977497	0.979435	0.981984	0.985024	0.988443	0.992139	
792.0	0.975941	0.976356	0.977569	0.9795	0.98204	0.98507	0.988478	0.992162	
793.0	0.97602	0.976432	0.977641	0.979565	0.982095	0.985115	0.988512	0.992186	
794.0	0.976098	0.976509	0.977712	0.979629	0.98215	0.98516	0.988546	0.992209	
795.0	0.976175	0.976584	0.977783	0.979693	0.982205	0.985204	0.98858	0.992231	
796.0	0.976251	0.976659	0.977853	0.979756	0.982259	0.985249	0.988614	0.992254	
797.0	0.976327	0.976733	0.977923	0.979818	0.982313	0.985292	0.988647	0.992276	
798.0	0.976402	0.976807	0.977992	0.97988	0.982366	0.985336	0.98868	0.992299	
799.0	0.976477	0.97688	0.97806	0.979942	0.982419	0.985379	0.988713	0.992321	
800.0	0.976551	0.976952	0.978128	0.980003	0.982472	0.985422	0.988746	0.992343	
801.0	0.976624	0.977024	0.978195	0.980063	0.982524	0.985465	0.988778	0.992365	
802.0	0.976697	0.977095	0.978262	0.980123	0.982575	0.985507	0.98881	0.992386	
803.0	0.976769	0.977166	0.978328	0.980183	0.982627	0.985549	0.988842	0.992408	
804.0	0.976841	0.977236	0.978394	0.980242	0.982678	0.985591	0.988874	0.992429	
805.0	0.976912	0.977305	0.978459	0.980301	0.982728	0.985632	0.988905	0.99245	
806.0	0.976982	0.977374	0.978524	0.980359	0.982778	0.985673	0.988937	0.992471	
807.0	0.977052	0.977443	0.978589	0.980417	0.982828	0.985714	0.988968	0.992492	
808.0	0.977121	0.977511	0.978652	0.980474	0.982878	0.985754	0.988999	0.992513	
809.0	0.97719	0.977578	0.978716	0.980531	0.982927	0.985794	0.989029	0.992534	
810.0	0.977259	0.977645	0.978778	0.980588	0.982976	0.985834	0.98906	0.992554	
811.0	0.977326	0.977711	0.978841	0.980644	0.983024	0.985874	0.98909	0.992574	
812.0	0.977394	0.977777	0.978903	0.9807	0.983072	0.985913	0.98912	0.992595	
813.0	0.977461	0.977843	0.978964	0.980755	0.98312	0.985952	0.989149	0.992615	
814.0	0.977527	0.977908	0.979025	0.98081	0.983167	0.985991	0.989179	0.992635	
815.0	0.977592	0.977972	0.979085	0.980865	0.983214	0.98603	0.989208	0.992654	
816.0	0.977658	0.978036	0.979146	0.980919	0.983261	0.986068	0.989237	0.992674	
817.0	0.977722	0.978099	0.979205	0.980972	0.983307	0.986106	0.989266	0.992694	
818.0	0.977787	0.978162	0.979264	0.981026	0.983353	0.986143	0.989295	0.992713	
819.0	0.977851	0.978225	0.979323	0.981079	0.983399	0.986181	0.989324	0.992732	
820.0	0.977914	0.978287	0.979381	0.981131	0.983444	0.986218	0.989352	0.992751	
821.0	0.977977	0.978348	0.979439	0.981183	0.983489	0.986255	0.98938	0.99277	
822.0	0.978039	0.978409	0.979497	0.981235	0.983534	0.986292	0.989408	0.992789	
823.0	0.978101	0.97847	0.979554	0.981287	0.983579	0.986328	0.989436	0.992808	
824.0	0.978162	0.97853	0.97961	0.981338	0.983623	0.986364	0.989463	0.992827	
825.0	0.978223	0.97859	0.979666	0.981389	0.983667	0.9864	0.989491	0.992845	
826.0	0.978284	0.978649	0.979722	0.981439	0.98371	0.986436	0.989518	0.992863	
827.0	0.978329	0.978693	0.979764	0.981476	0.983742	0.986462	0.989538	0.992877	
828.0	0.978351	0.978715	0.979784	0.981494	0.983756	0.986473	0.989546	0.992882	
829.0	0.978373	0.978736	0.979803	0.981511	0.983771	0.986485	0.989555	0.992888	
830.0	0.978395	0.978758	0.979823	0.981528	0.983785	0.986496	0.989563	0.992893	
831.0	0.978417	0.978779	0.979843	0.981545	0.9838	0.986508	0.989572	0.992899	
832.0	0.978439	0.9788	0.979862	0.981562	0.983814	0.986519	0.98958	0.992905	
833.0	0.97846	0.978821	0.979882	0.98158	0.983828	0.986531	0.989589	0.99291	
834.0	0.978482	0.978842	0.979901	0.981597	0.983843	0.986542	0.989597	0.992916	
835.0	0.978503	0.978863	0.97992	0.981614	0.983857	0.986553	0.989605	0.992921	
836.0	0.978525	0.978884	0.97994	0.981631	0.983871	0.986564	0.989614	0.992927	
837.0	0.978546	0.978905	0.979959	0.981648	0.983885	0.986576	0.989622	0.992932	
838.0	0.978567	0.978926	0.979978	0.981664	0.983899	0.986587	0.98963	0.992938	
839.0	0.978589	0.978946	0.979997	0.981681	0.983913	0.986598	0.989639	0.992943	
840.0	0.97861	0.978967	0.980016	0.981698	0.983928	0.986609	0.989647	0.992949	
841.0	0.978631	0.978987	0.980035	0.981714	0.983942	0.98662	0.989655	0.992954	
842.0	0.978652	0.979007	0.980054	0.981731	0.983955	0.986631	0.989663	0.992959	
843.0	0.978672	0.979028	0.980072	0.981748	0.983969	0.986643	0.989672	0.992965	
844.0	0.978693	0.979048	0.980091	0.981764	0.983983	0.986654	0.98968	0.99297	
845.0	0.978714	0.979068	0.98011	0.981781	0.983997	0.986665	0.989688	0.992976	
846.0	0.978734	0.979088	0.980128	0.981797	0.984011	0.986676	0.989696	0.992981	
847.0	0.978755	0.979108	0.980147	0.981813	0.984025	0.986687	0.989704	0.992987	
848.0	0.978775	0.979128	0.980165	0.98183	0.984038	0.986698	0.989713	0.992992	
849.0	0.978795	0.979148	0.980184	0.981846	0.984052	0.986708	0.989721	0.992997	
850.0	0.978816	0.979167	0.980202	0.981862	0.984065	0.986719	0.989729	0.993003	
851.0	0.978836	0.979187	0.98022	0.981878	0.984079	0.98673	0.989737	0.993008	
852.0	0.978856	0.979207	0.980238	0.981894	0.984093	0.986741	0.989745	0.993013	
853.0	0.978876	0.979226	0.980257	0.98191	0.984106	0.986752	0.989753	0.993019	
854.0	0.978896	0.979246	0.980275	0.981926	0.98412	0.986763	0.989761	0.993024	
855.0	0.978916	0.979265	0.980293	0.981942	0.984133	0.986773	0.989769	0.993029	
856.0	0.978935	0.979284	0.98031	0.981958	0.984146	0.986784	0.989777	0.993035	
857.0	0.978955	0.979303	0.980328	0.981974	0.98416	0.986795	0.989785	0.99304	
858.0	0.978975	0.979323	0.980346	0.98199	0.984173	0.986805	0.989793	0.993045	
859.0	0.978994	0.979342	0.980364	0.982005	0.984186	0.986816	0.989801	0.99305	
860.0	0.979014	0.979361	0.980382	0.982021	0.984199	0.986827	0.989809	0.993056	
861.0	0.979033	0.97938	0.980399	0.982036	0.984213	0.986837	0.989817	0.993061	
862.0	0.979053	0.979399	0.980417	0.982052	0.984226	0.986848	0.989825	0.993066	
863.0	0.979072	0.979417	0.980434	0.982068	0.984239	0.986858	0.989832	0.993071	
864.0	0.979091	0.979436	0.980452	0.982083	0.984252	0.986869	0.98984	0.993077	
865.0	0.97911	0.979455	0.980469	0.982098	0.984265	0.986879	0.989848	0.993082	
866.0	0.979129	0.979473	0.980486	0.982114	0.984278	0.98689	0.989856	0.993087	
867.0	0.979148	0.979492	0.980504	0.982129	0.984291	0.9869	0.989864	0.993092	
868.0	0.979167	0.97951	0.980521	0.982144	0.984304	0.986911	0.989872	0.993097	
869.0	0.979186	0.979529	0.980538	0.98216	0.984317	0.986921	0.989879	0.993102	
870.0	0.979205	0.979547	0.980555	0.982175	0.98433	0.986931	0.989887	0.993108	
871.0	0.979224	0.979566	0.980572	0.98219	0.984343	0.986942	0.989895	0.993113	
872.0	0.979242	0.979584	0.980589	0.982205	0.984356	0.986952	0.989903	0.993118	
873.0	0.979261	0.979602	0.980606	0.98222	0.984368	0.986962	0.98991	0.993123	
874.0	0.979279	0.97962	0.980623	0.982235	0.984381	0.986972	0.989918	0.993128	
875.0	0.979298	0.979638	0.98064	0.98225	0.984394	0.986983	0.989926	0.993133	
876.0	0.979316	0.979656	0.980656	0.982265	0.984406	0.986993	0.989933	0.993138	
877.0	0.979335	0.979674	0.980673	0.98228	0.984419	0.987003	0.989941	0.993143	
878.0	0.979353	0.979692	0.98069	0.982295	0.984432	0.987013	0.989949	0.993149	
879.0	0.979371	0.97971	0.980706	0.98231	0.984444	0.987023	0.989956	0.993154	
880.0	0.979389	0.979727	0.980723	0.982324	0.984457	0.987033	0.989964	0.993159	
881.0	0.979408	0.979745	0.980739	0.982339	0.984469	0.987043	0.989971	0.993164	
882.0	0.979426	0.979763	0.980756	0.982354	0.984482	0.987054	0.989979	0.993169	
883.0	0.979444	0.97978	0.980772	0.982368	0.984494	0.987064	0.989986	0.993174	
884.0	0.979462	0.979798	0.980789	0.982383	0.984507	0.987074	0.989994	0.993179	
885.0	0.979479	0.979815	0.980805	0.982397	0.984519	0.987084	0.990001	0.993184	
886.0	0.979484	0.97982	0.980809	0.982401	0.984522	0.987085	0.990003	0.993184	
887.0	0.97947	0.979806	0.980796	0.982388	0.98451	0.987075	0.989994	0.993179	
888.0	0.979457	0.979792	0.980782	0.982375	0.984498	0.987065	0.989986	0.993173	
889.0	0.979443	0.979779	0.980769	0.982363	0.984487	0.987055	0.989979	0.993168	
890.0	0.979429	0.979766	0.980756	0.98235	0.984475	0.987046	0.989971	0.993162	
891.0	0.979416	0.979752	0.980743	0.982338	0.984464	0.987036	0.989963	0.993157	
892.0	0.979403	0.979739	0.98073	0.982326	0.984453	0.987026	0.989955	0.993151	
893.0	0.97939	0.979726	0.980718	0.982314	0.984442	0.987017	0.989948	0.993146	
894.0	0.979377	0.979714	0.980706	0.982302	0.984432	0.987008	0.98994	0.993141	
895.0	0.979365	0.979701	0.980693	0.982291	0.984421	0.986998	0.989933	0.993136	
896.0	0.979352	0.979689	0.980681	0.982279	0.984411	0.986989	0.989926	0.993131	
897.0	0.97934	0.979677	0.98067	0.982268	0.9844	0.98698	0.989919	0.993126	
898.0	0.979328	0.979665	0.980658	0.982257	0.98439	0.986971	0.989912	0.993121	
899.0	0.979316	0.979653	0.980646	0.982246	0.98438	0.986963	0.989905	0.993116	
900.0	0.979304	0.979641	0.980635	0.982235	0.98437	0.986954	0.989898	0.993111	
901.0	0.979293	0.97963	0.980624	0.982224	0.98436	0.986946	0.989891	0.993106	
902.0	0.979281	0.979619	0.980612	0.982214	0.984351	0.986937	0.989884	0.993102	
903.0	0.97927	0.979607	0.980602	0.982203	0.984341	0.986929	0.989877	0.993097	
904.0	0.979259	0.979596	0.980591	0.982193	0.984332	0.986921	0.989871	0.993092	
905.0	0.979248	0.979585	0.98058	0.982183	0.984322	0.986913	0.989865	0.993088	
906.0	0.979237	0.979575	0.98057	0.982173	0.984313	0.986905	0.989858	0.993083	
907.0	0.979227	0.979564	0.980559	0.982163	0.984304	0.986897	0.989852	0.993079	
908.0	0.979216	0.979554	0.980549	0.982154	0.984295	0.986889	0.989846	0.993075	
909.0	0.979206	0.979543	0.980539	0.982144	0.984286	0.986881	0.989839	0.99307	
910.0	0.979196	0.979533	0.980529	0.982135	0.984278	0.986874	0.989833	0.993066	
911.0	0.979185	0.979523	0.980519	0.982125	0.984269	0.986866	0.989827	0.993062	
912.0	0.979176	0.979513	0.98051	0.982116	0.984261	0.986859	0.989821	0.993058	
913.0	0.979166	0.979504	0.9805	0.982107	0.984252	0.986852	0.989816	0.993054	
914.0	0.979156	0.979494	0.980491	0.982098	0.984244	0.986845	0.98981	0.99305	
915.0	0.979147	0.979485	0.980482	0.982089	0.984236	0.986838	0.989804	0.993046	
916.0	0.979137	0.979475	0.980473	0.982081	0.984228	0.986831	0.989799	0.993042	
917.0	0.979128	0.979466	0.980464	0.982072	0.98422	0.986824	0.989793	0.993038	
918.0	0.979119	0.979457	0.980455	0.982063	0.984212	0.986817	0.989788	0.993034	
919.0	0.97911	0.979448	0.980446	0.982055	0.984205	0.98681	0.989782	0.99303	
920.0	0.979101	0.97944	0.980437	0.982047	0.984197	0.986804	0.989777	0.993027	
921.0	0.979093	0.979431	0.980429	0.982039	0.98419	0.986797	0.989772	0.993023	
922.0	0.979084	0.979422	0.980421	0.982031	0.984182	0.986791	0.989767	0.993019	
923.0	0.979076	0.979414	0.980412	0.982023	0.984175	0.986784	0.989761	0.993016	
924.0	0.979067	0.979406	0.980404	0.982015	0.984168	0.986778	0.989756	0.993012	
925.0	0.979059	0.979398	0.980396	0.982008	0.984161	0.986772	0.989751	0.993009	
926.0	0.979051	0.97939	0.980389	0.982	0.984154	0.986766	0.989746	0.993005	
927.0	0.979043	0.979382	0.980381	0.981993	0.984147	0.98676	0.989742	0.993002	
928.0	0.979035	0.979374	0.980373	0.981985	0.98414	0.986754	0.989737	0.992998	
929.0	0.979028	0.979366	0.980366	0.981978	0.984133	0.986748	0.989732	0.992995	
930.0	0.97902	0.979359	0.980358	0.981971	0.984127	0.986742	0.989728	0.992992	
931.0	0.979013	0.979351	0.980351	0.981964	0.98412	0.986737	0.989723	0.992989	
932.0	0.979005	0.979344	0.980344	0.981957	0.984114	0.986731	0.989718	0.992985	
933.0	0.978998	0.979337	0.980337	0.98195	0.984108	0.986726	0.989714	0.992982	
934.0	0.978991	0.97933	0.98033	0.981944	0.984102	0.98672	0.98971	0.992979	
935.0	0.978984	0.979323	0.980323	0.981937	0.984095	0.986715	0.989705	0.992976	
936.0	0.978977	0.979316	0.980316	0.981931	0.984089	0.986709	0.989701	0.992973	
937.0	0.97897	0.979309	0.98031	0.981924	0.984084	0.986704	0.989697	0.99297	
938.0	0.978964	0.979303	0.980303	0.981918	0.984078	0.986699	0.989693	0.992967	
939.0	0.978957	0.979296	0.980297	0.981912	0.984072	0.986694	0.989689	0.992964	
940.0	0.978951	0.97929	0.98029	0.981906	0.984066	0.986689	0.989685	0.992962	
941.0	0.978944	0.979284	0.980284	0.9819	0.984061	0.986684	0.989681	0.992959	
942.0	0.978938	0.979277	0.980278	0.981894	0.984055	0.986679	0.989677	0.992956	
943.0	0.978932	0.979271	0.980272	0.981888	0.98405	0.986675	0.989673	0.992953	
944.0	0.978926	0.979265	0.980266	0.981882	0.984045	0.98667	0.989669	0.992951	
945.0	0.97892	0.979259	0.98026	0.981877	0.984039	0.986665	0.989665	0.992948	
946.0	0.978914	0.979254	0.980255	0.981871	0.984034	0.986661	0.989662	0.992945	
947.0	0.978909	0.979248	0.980249	0.981866	0.984029	0.986656	0.989658	0.992943	
948.0	0.978903	0.979242	0.980243	0.98186	0.984024	0.986652	0.989655	0.99294	
949.0	0.978898	0.979237	0.980238	0.981855	0.984019	0.986648	0.989651	0.992938	
950.0	0.978892	0.979231	0.980233	0.98185	0.984014	0.986643	0.989648	0.992935	
951.0	0.978887	0.979226	0.980227	0.981845	0.98401	0.986639	0.989644	0.992933	
952.0	0.978882	0.979221	0.980222	0.98184	0.984005	0.986635	0.989641	0.992931	
953.0	0.978877	0.979216	0.980217	0.981835	0.984	0.986631	0.989637	0.992928	
954.0	0.978876	0.979216	0.980217	0.981834	0.983999	0.98663	0.989637	0.992928	
955.0	0.978887	0.979226	0.980227	0.981843	0.984007	0.986636	0.989641	0.992931	
956.0	0.978898	0.979237	0.980237	0.981852	0.984015	0.986642	0.989646	0.992934	
957.0	0.978909	0.979248	0.980247	0.981861	0.984022	0.986648	0.98965	0.992937	
958.0	0.978921	0.979259	0.980257	0.98187	0.98403	0.986655	0.989655	0.99294	
959.0	0.978931	0.979269	0.980267	0.981879	0.984038	0.986661	0.98966	0.992943	
960.0	0.978943	0.97928	0.980277	0.981888	0.984045	0.986667	0.989664	0.992946	
961.0	0.978954	0.979291	0.980287	0.981897	0.984053	0.986673	0.989669	0.992949	
962.0	0.978965	0.979302	0.980297	0.981906	0.984061	0.986679	0.989673	0.992952	
963.0	0.978976	0.979312	0.980307	0.981915	0.984068	0.986685	0.989678	0.992955	
964.0	0.978987	0.979323	0.980317	0.981924	0.984076	0.986692	0.989683	0.992958	
965.0	0.978998	0.979334	0.980327	0.981933	0.984083	0.986698	0.989687	0.992961	
966.0	0.979009	0.979345	0.980337	0.981942	0.984091	0.986704	0.989692	0.992964	
967.0	0.97902	0.979355	0.980347	0.981951	0.984099	0.98671	0.989697	0.992968	
968.0	0.97903	0.979366	0.980357	0.98196	0.984106	0.986716	0.989701	0.992971	
969.0	0.979041	0.979377	0.980368	0.981969	0.984114	0.986722	0.989706	0.992974	
970.0	0.979052	0.979388	0.980377	0.981978	0.984122	0.986729	0.989711	0.992977	
971.0	0.979063	0.979398	0.980387	0.981987	0.984129	0.986735	0.989715	0.99298	
972.0	0.979074	0.979409	0.980398	0.981996	0.984137	0.986741	0.98972	0.992983	
973.0	0.979085	0.97942	0.980407	0.982005	0.984145	0.986747	0.989725	0.992986	
974.0	0.979096	0.97943	0.980418	0.982013	0.984152	0.986753	0.989729	0.992989	
975.0	0.979107	0.979441	0.980427	0.982022	0.98416	0.986759	0.989734	0.992992	
976.0	0.979118	0.979452	0.980437	0.982031	0.984168	0.986766	0.989739	0.992995	
977.0	0.979129	0.979462	0.980448	0.98204	0.984175	0.986772	0.989743	0.992999	
978.0	0.97914	0.979473	0.980457	0.982049	0.984183	0.986778	0.989748	0.993002	
979.0	0.979151	0.979484	0.980467	0.982058	0.98419	0.986784	0.989753	0.993005	
980.0	0.979162	0.979494	0.980477	0.982067	0.984198	0.986791	0.989757	0.993008	
981.0	0.979172	0.979505	0.980487	0.982076	0.984206	0.986797	0.989762	0.993011	
982.0	0.979183	0.979516	0.980497	0.982085	0.984213	0.986803	0.989767	0.993014	
983.0	0.979194	0.979526	0.980507	0.982094	0.984221	0.986809	0.989771	0.993017	
984.0	0.979205	0.979537	0.980517	0.982103	0.984229	0.986815	0.989776	0.99302	
985.0	0.979216	0.979547	0.980527	0.982112	0.984236	0.986821	0.989781	0.993024	
986.0	0.979227	0.979558	0.980537	0.982121	0.984244	0.986828	0.989785	0.993027	
987.0	0.979237	0.979569	0.980547	0.98213	0.984251	0.986834	0.98979	0.99303	
988.0	0.979248	0.979579	0.980557	0.982138	0.984259	0.98684	0.989795	0.993033	
989.0	0.979259	0.97959	0.980567	0.982147	0.984267	0.986846	0.989799	0.993036	
990.0	0.97927	0.9796	0.980577	0.982156	0.984274	0.986852	0.989804	0.993039	
991.0	0.979281	0.979611	0.980587	0.982165	0.984282	0.986859	0.989809	0.993042	
992.0	0.979291	0.979621	0.980596	0.982174	0.98429	0.986865	0.989813	0.993046	
993.0	0.979302	0.979632	0.980606	0.982183	0.984297	0.986871	0.989818	0.993048	
994.0	0.979313	0.979642	0.980616	0.982192	0.984305	0.986877	0.989823	0.993052	
995.0	0.979324	0.979653	0.980626	0.982201	0.984312	0.986883	0.989827	0.993055	
996.0	0.979335	0.979664	0.980636	0.982209	0.98432	0.986889	0.989832	0.993058	
997.0	0.979345	0.979674	0.980646	0.982218	0.984328	0.986896	0.989837	0.993061	
998.0	0.979356	0.979685	0.980656	0.982227	0.984335	0.986902	0.989841	0.993064	
999.0	0.979367	0.979695	0.980666	0.982236	0.984343	0.986908	0.989846	0.993067	
1000.0	0.979377	0.979706	0.980675	0.982245	0.98435	0.986914	0.989851	0.99307	
