wavelength	0.0	10.0	20.0	30.0	40.0	50.0	60.0	70.0
251.0	0.291252	0.296745	0.313605	0.343216	0.38831	0.452823	0.541307	0.658552	
252.0	0.29066	0.29611	0.312865	0.342361	0.387387	0.451904	0.540469	0.657873	
253.0	0.290037	0.295447	0.312104	0.341497	0.386465	0.450994	0.539644	0.657209	
254.0	0.289385	0.294758	0.311322	0.340618	0.385537	0.450084	0.538825	0.656556	
255.0	0.288708	0.294044	0.310519	0.339727	0.384605	0.44918	0.538019	0.655921	
256.0	0.287998	0.293299	0.309691	0.33882	0.383669	0.448285	0.537233	0.655311	
257.0	0.28725	0.292518	0.308835	0.337898	0.382734	0.447404	0.536472	0.654733	
258.0	0.286461	0.2917	0.307953	0.336966	0.381805	0.446544	0.535743	0.654192	
259.0	0.285574	0.290789	0.30699	0.335969	0.380826	0.445644	0.534983	0.653632	
260.0	0.284637	0.289833	0.305996	0.334958	0.379847	0.444754	0.534239	0.653091	
261.0	0.283687	0.288869	0.305006	0.333967	0.378901	0.443905	0.533541	0.652596	
262.0	0.282734	0.287905	0.304029	0.333	0.37799	0.443097	0.532889	0.652144	
263.0	0.281785	0.286951	0.303069	0.332061	0.377114	0.442331	0.53228	0.651733	
264.0	0.280674	0.285835	0.301949	0.330963	0.376078	0.441407	0.531528	0.651207	
265.0	0.278885	0.284035	0.30013	0.32914	0.374292	0.439731	0.53007	0.650096	
266.0	0.277118	0.28226	0.298339	0.327349	0.372543	0.438096	0.528655	0.649025	
267.0	0.275376	0.280511	0.296578	0.325592	0.370832	0.436503	0.527285	0.647996	
268.0	0.273662	0.278791	0.294849	0.323871	0.36916	0.434951	0.52596	0.647008	
269.0	0.271976	0.2771	0.293153	0.322185	0.367525	0.433442	0.524679	0.64606	
270.0	0.270314	0.275434	0.291482	0.320526	0.365918	0.431959	0.523424	0.645134	
271.0	0.268677	0.273794	0.289838	0.318895	0.364338	0.430504	0.522196	0.64423	
272.0	0.267073	0.272188	0.28823	0.3173	0.362798	0.429091	0.521013	0.643364	
273.0	0.265503	0.270615	0.286656	0.315743	0.361297	0.427722	0.519875	0.642536	
274.0	0.263965	0.269076	0.285118	0.314222	0.359837	0.426397	0.518781	0.641744	
275.0	0.26246	0.26757	0.283614	0.312738	0.358416	0.425115	0.51773	0.640987	
276.0	0.260439	0.265542	0.281571	0.310694	0.356421	0.423266	0.516156	0.639797	
277.0	0.2579	0.262988	0.278986	0.308087	0.353848	0.420846	0.514054	0.638168	
278.0	0.255391	0.260466	0.276433	0.305513	0.351311	0.418465	0.511987	0.636564	
279.0	0.252914	0.257976	0.273913	0.302973	0.34881	0.416121	0.509956	0.634984	
280.0	0.250469	0.255518	0.271426	0.300467	0.346345	0.413816	0.50796	0.633427	
281.0	0.248056	0.253093	0.268971	0.297996	0.343917	0.411549	0.505998	0.631891	
282.0	0.245545	0.250569	0.266416	0.295422	0.341387	0.409186	0.503951	0.630281	
283.0	0.242538	0.247542	0.263346	0.292322	0.338333	0.406323	0.501453	0.628304	
284.0	0.239549	0.244536	0.260297	0.289243	0.335301	0.403483	0.498976	0.626336	
285.0	0.236582	0.24155	0.257268	0.286187	0.332294	0.40067	0.49652	0.624378	
286.0	0.233636	0.238585	0.254262	0.283153	0.329312	0.397883	0.494087	0.622429	
287.0	0.230711	0.235643	0.251278	0.280144	0.326357	0.395124	0.491677	0.620491	
288.0	0.227809	0.232723	0.248317	0.277159	0.32343	0.392396	0.489292	0.618563	
289.0	0.224113	0.229	0.24453	0.273322	0.319638	0.388824	0.486132	0.615993	
290.0	0.220073	0.224929	0.240384	0.269114	0.315471	0.384886	0.482632	0.613132	
291.0	0.216039	0.220863	0.236243	0.264912	0.311312	0.380957	0.479133	0.610258	
292.0	0.212013	0.216806	0.232111	0.26072	0.307165	0.377041	0.475639	0.607372	
293.0	0.208	0.212761	0.227992	0.256543	0.303036	0.373143	0.472154	0.604476	
294.0	0.204002	0.208732	0.22389	0.252385	0.298929	0.369267	0.468679	0.60157	
295.0	0.200024	0.204724	0.219809	0.248251	0.294851	0.36542	0.465218	0.598655	
296.0	0.194558	0.199207	0.214166	0.242486	0.289092	0.3599	0.460187	0.594408	
297.0	0.188721	0.193312	0.208126	0.236302	0.282894	0.353931	0.45471	0.589755	
298.0	0.182896	0.187429	0.202094	0.23012	0.27669	0.347939	0.44918	0.585019	
299.0	0.176816	0.181288	0.195804	0.223682	0.27024	0.341712	0.443415	0.580052	
300.0	0.169578	0.173989	0.188358	0.216113	0.262722	0.334507	0.436766	0.574314	
301.0	0.162271	0.166617	0.180829	0.208448	0.255084	0.327142	0.429901	0.568324	
302.0	0.15491	0.159187	0.173233	0.200695	0.247327	0.319607	0.422797	0.562055	
303.0	0.147413	0.15164	0.165576	0.192978	0.23972	0.312296	0.415899	0.555894	
304.0	0.139748	0.143936	0.157798	0.185199	0.23211	0.304999	0.408956	0.549602	
305.0	0.131968	0.136114	0.149889	0.177259	0.224282	0.297385	0.401579	0.54282	
306.0	0.124084	0.128181	0.141846	0.169142	0.216197	0.289395	0.393693	0.535468	
307.0	0.116543	0.120636	0.134327	0.161756	0.20906	0.282456	0.386766	0.528826	
308.0	0.108962	0.113052	0.126773	0.154326	0.201832	0.275314	0.379485	0.521734	
309.0	0.101293	0.105376	0.119104	0.146734	0.194345	0.267762	0.371629	0.513991	
310.0	0.09354	0.097607	0.111315	0.138962	0.186569	0.259761	0.363155	0.505549	
311.0	0.083802	0.087905	0.101761	0.129711	0.177635	0.250775	0.353605	0.495853	
312.0	0.077097	0.081317	0.095546	0.124107	0.172621	0.24581	0.34792	0.489532	
313.0	0.073763	0.078194	0.093061	0.122586	0.171997	0.245352	0.346597	0.487102	
314.0	0.071438	0.076156	0.091867	0.122634	0.173157	0.246694	0.346861	0.48592	
315.0	0.073099	0.07843	0.095911	0.129218	0.182034	0.256219	0.354811	0.491162	
316.0	0.078348	0.084353	0.103722	0.13956	0.194345	0.268555	0.364959	0.498233	
317.0	0.086146	0.092791	0.113884	0.151839	0.207894	0.281378	0.37522	0.505548	
318.0	0.097577	0.104941	0.127912	0.16798	0.224925	0.296996	0.387691	0.514816	
319.0	0.121699	0.130096	0.155632	0.198227	0.255591	0.324963	0.411206	0.53402	
320.0	0.145791	0.15486	0.181883	0.225368	0.281554	0.347588	0.430175	0.550252	
321.0	0.166207	0.175586	0.203109	0.246262	0.300505	0.363532	0.443842	0.562772	
322.0	0.188439	0.197961	0.225506	0.267677	0.319506	0.379645	0.458379	0.576698	
323.0	0.218177	0.227671	0.254717	0.295141	0.343906	0.401084	0.47871	0.596366	
324.0	0.246764	0.255964	0.28189	0.320039	0.365816	0.420888	0.498457	0.615792	
325.0	0.26857	0.277347	0.301933	0.337894	0.381366	0.435472	0.51388	0.631263	
326.0	0.290951	0.299204	0.322261	0.356002	0.397514	0.451288	0.530873	0.647924	
327.0	0.317689	0.325304	0.346604	0.378042	0.417869	0.47181	0.552603	0.668358	
328.0	0.346504	0.353443	0.372964	0.40228	0.440897	0.495456	0.577205	0.690633	
329.0	0.375538	0.381853	0.399781	0.427364	0.465313	0.520755	0.602949	0.713116	
330.0	0.404619	0.410408	0.427032	0.453338	0.491087	0.547431	0.629363	0.735387	
331.0	0.434956	0.440353	0.45604	0.481574	0.519511	0.576544	0.657267	0.758093	
332.0	0.46664	0.471798	0.486954	0.512216	0.550586	0.607846	0.686283	0.780934	
333.0	0.489033	0.494123	0.50921	0.53475	0.573814	0.631153	0.70742	0.797155	
334.0	0.505388	0.510507	0.525779	0.55186	0.591667	0.648951	0.723256	0.809068	
335.0	0.521378	0.526559	0.542092	0.568729	0.609098	0.666	0.73814	0.82012	
336.0	0.537178	0.542441	0.558264	0.58541	0.626131	0.682359	0.752193	0.830446	
337.0	0.552601	0.557953	0.574062	0.601632	0.642496	0.697823	0.765298	0.839994	
338.0	0.567603	0.57304	0.589403	0.617289	0.658098	0.712354	0.777472	0.848805	
339.0	0.582161	0.587672	0.604241	0.632322	0.6729	0.725963	0.788765	0.856936	
340.0	0.595897	0.601469	0.61819	0.646358	0.686569	0.738386	0.798986	0.864261	
341.0	0.608349	0.613967	0.630792	0.658959	0.698724	0.749317	0.807908	0.870627	
342.0	0.620358	0.626002	0.642867	0.670928	0.710144	0.759492	0.816166	0.876505	
343.0	0.631914	0.637563	0.654404	0.682266	0.720854	0.768952	0.823804	0.881935	
344.0	0.643009	0.648643	0.665403	0.692985	0.730884	0.777742	0.83087	0.88695	
345.0	0.65316	0.658766	0.675408	0.702667	0.739872	0.785568	0.837136	0.891394	
346.0	0.662585	0.668151	0.684641	0.711542	0.748049	0.792643	0.842781	0.895396	
347.0	0.671618	0.67713	0.693432	0.719933	0.755721	0.799242	0.848028	0.899113	
348.0	0.680259	0.685706	0.70179	0.727856	0.762914	0.805392	0.852902	0.902562	
349.0	0.688513	0.693884	0.709726	0.735332	0.769655	0.811124	0.857428	0.905763	
350.0	0.696388	0.701676	0.717257	0.742384	0.775975	0.816469	0.861635	0.908735	
351.0	0.703897	0.709097	0.724402	0.74904	0.781904	0.821459	0.865549	0.911497	
352.0	0.711058	0.716165	0.731183	0.755326	0.787475	0.826125	0.869196	0.914068	
353.0	0.717888	0.722898	0.737624	0.76127	0.792717	0.830496	0.872601	0.916463	
354.0	0.724405	0.729317	0.743748	0.766898	0.797657	0.834598	0.875785	0.918701	
355.0	0.730387	0.735205	0.749355	0.772037	0.802156	0.838323	0.878672	0.920728	
356.0	0.736063	0.740788	0.754661	0.776887	0.806387	0.841815	0.881371	0.92262	
357.0	0.741515	0.746147	0.759743	0.78152	0.810416	0.84513	0.883924	0.924408	
358.0	0.746758	0.751298	0.764622	0.785955	0.814262	0.848285	0.886348	0.926101	
359.0	0.751811	0.75626	0.769314	0.790213	0.817946	0.851299	0.888657	0.92771	
360.0	0.756688	0.761046	0.773835	0.794309	0.821481	0.854183	0.89086	0.929242	
361.0	0.761399	0.765669	0.778196	0.798252	0.824876	0.856946	0.892963	0.930701	
362.0	0.765955	0.770137	0.782407	0.802053	0.828142	0.859595	0.894973	0.932091	
363.0	0.770363	0.774458	0.786476	0.805719	0.831284	0.862136	0.896894	0.933415	
364.0	0.774629	0.77864	0.790409	0.809257	0.83431	0.864576	0.89873	0.934676	
365.0	0.777518	0.781465	0.793049	0.811606	0.836284	0.866129	0.89987	0.935445	
366.0	0.777464	0.781395	0.792934	0.811424	0.836027	0.865813	0.899544	0.935189	
367.0	0.777414	0.78133	0.792824	0.811246	0.835773	0.865499	0.899218	0.934931	
368.0	0.777369	0.781268	0.792715	0.811069	0.83552	0.865184	0.89889	0.934668	
369.0	0.777322	0.781204	0.792605	0.81089	0.835264	0.864864	0.898556	0.934398	
370.0	0.777269	0.781135	0.792489	0.810705	0.835001	0.864538	0.898214	0.934118	
371.0	0.777211	0.781061	0.792368	0.810516	0.834734	0.864208	0.897867	0.933833	
372.0	0.777148	0.780982	0.792243	0.810323	0.834466	0.863877	0.897519	0.933545	
373.0	0.777083	0.780901	0.792117	0.810132	0.8342	0.86355	0.897175	0.933258	
374.0	0.777018	0.78082	0.791994	0.809945	0.833941	0.863231	0.896838	0.932975	
375.0	0.776956	0.780744	0.791876	0.809766	0.833693	0.862924	0.896512	0.932701	
376.0	0.777688	0.781449	0.792504	0.810274	0.834054	0.863131	0.896591	0.932709	
377.0	0.780222	0.783928	0.794822	0.812338	0.835789	0.864493	0.897574	0.933349	
378.0	0.782702	0.786354	0.797092	0.814362	0.837495	0.865836	0.898547	0.933983	
379.0	0.785132	0.788734	0.799321	0.816353	0.839177	0.867164	0.899513	0.934616	
380.0	0.787519	0.791071	0.801513	0.818314	0.84084	0.868483	0.900478	0.935251	
381.0	0.789867	0.793371	0.803673	0.820252	0.842488	0.869797	0.901446	0.935893	
382.0	0.79218	0.795637	0.805804	0.822167	0.844122	0.871106	0.902417	0.936543	
383.0	0.794458	0.79787	0.807906	0.82406	0.845743	0.872411	0.90339	0.937199	
384.0	0.796703	0.800071	0.809979	0.825931	0.847349	0.87371	0.904365	0.937861	
385.0	0.798914	0.80224	0.812025	0.82778	0.84894	0.875002	0.90534	0.938528	
386.0	0.801092	0.804377	0.814042	0.829605	0.850516	0.876285	0.906314	0.939199	
387.0	0.803237	0.806482	0.816029	0.831407	0.852073	0.877558	0.907285	0.939872	
388.0	0.805696	0.808897	0.818314	0.833486	0.853882	0.879049	0.908435	0.940676	
389.0	0.808454	0.811606	0.820883	0.83583	0.855931	0.880748	0.909754	0.941604	
390.0	0.81116	0.814266	0.823404	0.838131	0.857943	0.88242	0.911053	0.942521	
391.0	0.813814	0.816874	0.825877	0.840389	0.859918	0.884061	0.912332	0.943426	
392.0	0.816415	0.819429	0.8283	0.842601	0.861855	0.885671	0.913588	0.944315	
393.0	0.818961	0.82193	0.830671	0.844767	0.863751	0.887249	0.914818	0.945187	
394.0	0.821451	0.824377	0.832992	0.846887	0.865608	0.888796	0.916026	0.946045	
395.0	0.823886	0.826771	0.835263	0.848964	0.867431	0.890316	0.917216	0.94689	
396.0	0.826271	0.829115	0.837489	0.851002	0.869222	0.891816	0.918393	0.947729	
397.0	0.828606	0.831411	0.839672	0.853005	0.870987	0.893298	0.919561	0.948565	
398.0	0.830896	0.833664	0.841815	0.854976	0.872731	0.894769	0.920728	0.949405	
399.0	0.833143	0.835875	0.843923	0.856919	0.874457	0.896234	0.921898	0.950253	
400.0	0.835349	0.838047	0.845997	0.858836	0.876169	0.897697	0.923078	0.951115	
401.0	0.837006	0.839679	0.847556	0.860281	0.877463	0.898809	0.92398	0.951783	
402.0	0.838633	0.841283	0.849093	0.861714	0.878758	0.899936	0.924909	0.952481	
403.0	0.840229	0.842857	0.850606	0.863134	0.880056	0.901081	0.92587	0.953217	
404.0	0.841787	0.844397	0.852093	0.86454	0.881356	0.902249	0.926871	0.953998	
405.0	0.8433	0.845894	0.853547	0.865928	0.88266	0.903444	0.92792	0.954837	
406.0	0.844751	0.847334	0.854954	0.867288	0.88396	0.904665	0.929022	0.955742	
407.0	0.846123	0.848697	0.856296	0.868603	0.885245	0.905905	0.930176	0.956719	
408.0	0.847389	0.84996	0.857551	0.869856	0.886503	0.907158	0.931384	0.957775	
409.0	0.848515	0.851087	0.858689	0.871022	0.887715	0.908419	0.93265	0.958922	
410.0	0.849456	0.852037	0.859671	0.872071	0.888867	0.909684	0.933985	0.96018	
411.0	0.850156	0.852756	0.860452	0.872972	0.889943	0.910958	0.935409	0.961578	
412.0	0.850546	0.853177	0.860979	0.87369	0.890934	0.912257	0.936957	0.963162	
413.0	0.850546	0.853229	0.861196	0.874201	0.89185	0.91362	0.938686	0.964996	
414.0	0.850375	0.853137	0.861349	0.874774	0.892981	0.915339	0.940868	0.967299	
415.0	0.849799	0.852683	0.861269	0.875307	0.894285	0.917409	0.943506	0.970082	
416.0	0.848746	0.851819	0.86096	0.875864	0.895856	0.919906	0.946628	0.973336	
417.0	0.847503	0.850846	0.860762	0.876791	0.897979	0.922991	0.950265	0.977013	
418.0	0.846718	0.850412	0.861282	0.878577	0.900932	0.926709	0.954292	0.980917	
419.0	0.847335	0.851401	0.863221	0.881615	0.904773	0.930871	0.9584	0.984735	
420.0	0.850062	0.854415	0.866895	0.88588	0.909226	0.935111	0.962255	0.988202	
421.0	0.85491	0.859373	0.872022	0.890931	0.913843	0.939087	0.96564	0.99119	
422.0	0.861172	0.865554	0.877887	0.896164	0.918213	0.942584	0.968475	0.993685	
423.0	0.867879	0.872047	0.883753	0.901091	0.922091	0.94553	0.970779	0.995738	
424.0	0.874272	0.878169	0.889133	0.90545	0.925397	0.947948	0.972617	0.997413	
425.0	0.879962	0.883587	0.893824	0.909176	0.928153	0.949901	0.974057	0.998765	
426.0	0.884848	0.888228	0.897813	0.912308	0.930428	0.951459	0.975155	0.999827	
427.0	0.888981	0.892148	0.901171	0.914924	0.932293	0.952679	0.975942	1.000605	
428.0	0.892272	0.895263	0.903819	0.916952	0.93368	0.953493	0.97635	1.001022	
429.0	0.894849	0.897696	0.905865	0.918477	0.934649	0.953935	0.97638	1.001044	
430.0	0.89701	0.899733	0.907569	0.919719	0.935377	0.954133	0.976106	1.000681	
431.0	0.898838	0.901453	0.908994	0.920726	0.935892	0.954095	0.975504	0.999864	
432.0	0.900399	0.902918	0.910194	0.921538	0.936217	0.953824	0.974543	0.99851	
433.0	0.901749	0.904181	0.911213	0.922184	0.936371	0.953321	0.973187	0.996516	
434.0	0.902931	0.905283	0.912083	0.922691	0.936367	0.952574	0.971381	0.99375	
435.0	0.903971	0.906246	0.912822	0.923065	0.936198	0.951555	0.969042	0.990031	
436.0	0.904883	0.907083	0.913437	0.923306	0.93585	0.950222	0.966057	0.985127	
437.0	0.905674	0.9078	0.913932	0.923411	0.935307	0.948525	0.962301	0.978776	
438.0	0.906352	0.908404	0.914309	0.923375	0.93455	0.946406	0.957619	0.970675	
439.0	0.90692	0.908896	0.914565	0.923189	0.933552	0.943797	0.951834	0.960508	
440.0	0.907379	0.909278	0.9147	0.922843	0.932285	0.940619	0.94474	0.947964	
441.0	0.907733	0.90955	0.91471	0.922326	0.930719	0.936782	0.936113	0.9328	
442.0	0.90798	0.90971	0.914589	0.921625	0.928815	0.932178	0.925703	0.914899	
443.0	0.908196	0.909833	0.914403	0.920786	0.926581	0.926711	0.913218	0.894231	
444.0	0.908606	0.910136	0.91435	0.919971	0.924103	0.920274	0.898163	0.870598	
445.0	0.90889	0.910306	0.914133	0.918902	0.921111	0.912568	0.880367	0.845319	
446.0	0.909043	0.910335	0.913738	0.917549	0.917528	0.903384	0.85967	0.819739	
447.0	0.90906	0.910217	0.913153	0.915883	0.91327	0.892491	0.836095	0.795516	
448.0	0.908933	0.909943	0.912361	0.913867	0.908235	0.879646	0.809953	0.774332	
449.0	0.908653	0.909502	0.911344	0.911457	0.902304	0.864594	0.781933	0.757532	
450.0	0.90821	0.90888	0.910078	0.908602	0.895339	0.847086	0.753132	0.745841	
451.0	0.90759	0.908062	0.908538	0.905242	0.887178	0.826933	0.725064	0.739325	
452.0	0.906775	0.907026	0.906687	0.901301	0.877633	0.804042	0.699478	0.737496	
453.0	0.905746	0.905749	0.904489	0.896695	0.866496	0.778501	0.678061	0.73951	
454.0	0.904479	0.904203	0.901896	0.89132	0.853537	0.750674	0.662138	0.744424	
455.0	0.902948	0.902358	0.898857	0.885065	0.838527	0.721286	0.65237	0.751325	
456.0	0.901122	0.900176	0.895311	0.877795	0.821233	0.691471	0.648721	0.759456	
457.0	0.898967	0.897615	0.891188	0.869359	0.801466	0.662749	0.650536	0.768218	
458.0	0.896437	0.894624	0.886401	0.859576	0.779101	0.636866	0.6568	0.777187	
459.0	0.893489	0.891148	0.880859	0.84826	0.754167	0.615546	0.666341	0.786056	
460.0	0.890068	0.887125	0.874462	0.835237	0.726993	0.600193	0.67798	0.794574	
461.0	0.886114	0.88248	0.867082	0.820281	0.69806	0.59147	0.690838	0.802674	
462.0	0.881545	0.877117	0.858564	0.803157	0.668219	0.589401	0.704235	0.810316	
463.0	0.876279	0.870937	0.84875	0.783693	0.638761	0.593363	0.717644	0.817469	
464.0	0.870213	0.863818	0.837452	0.761754	0.611267	0.602293	0.730719	0.824133	
465.0	0.863227	0.855619	0.824466	0.737333	0.587505	0.614948	0.743237	0.83032	
466.0	0.85519	0.846188	0.809584	0.710606	0.569099	0.630084	0.755066	0.836049	
467.0	0.845949	0.835347	0.792597	0.682009	0.557251	0.64663	0.766145	0.841346	
468.0	0.835329	0.822901	0.773313	0.652311	0.5525	0.663735	0.776462	0.846239	
469.0	0.82314	0.808642	0.751602	0.622678	0.554652	0.680768	0.786026	0.850755	
470.0	0.809169	0.792352	0.727426	0.594628	0.562882	0.697304	0.794874	0.854923	
471.0	0.793208	0.773837	0.700933	0.569934	0.575958	0.713067	0.803041	0.858767	
472.0	0.775051	0.752935	0.672513	0.55035	0.592508	0.727904	0.810576	0.86231	
473.0	0.754532	0.729575	0.642893	0.53731	0.611223	0.741747	0.817524	0.865576	
474.0	0.731548	0.703817	0.613184	0.531629	0.631001	0.754587	0.823932	0.868584	
475.0	0.706155	0.675969	0.584912	0.533358	0.650971	0.766444	0.829842	0.871352	
476.0	0.678594	0.646624	0.559861	0.541809	0.670527	0.777369	0.835297	0.873896	
477.0	0.649435	0.616808	0.539947	0.555802	0.689238	0.787389	0.840311	0.876219	
478.0	0.619888	0.588321	0.527299	0.574011	0.706641	0.796325	0.844738	0.878222	
479.0	0.591247	0.562713	0.522212	0.594543	0.722794	0.804511	0.848816	0.880044	
480.0	0.565207	0.541816	0.524706	0.616162	0.737691	0.812019	0.852576	0.881696	
481.0	0.543612	0.527259	0.534043	0.637912	0.75137	0.818909	0.856045	0.883188	
482.0	0.52815	0.520124	0.548938	0.659109	0.763895	0.825238	0.859244	0.884527	
483.0	0.520013	0.520721	0.567852	0.679314	0.775346	0.83106	0.862195	0.88572	
484.0	0.519639	0.528545	0.589272	0.698276	0.785812	0.836421	0.864917	0.886774	
485.0	0.526643	0.542446	0.611884	0.715878	0.795378	0.841363	0.867426	0.887695	
486.0	0.539945	0.560904	0.634651	0.732091	0.804125	0.845923	0.869737	0.888486	
487.0	0.558058	0.582345	0.656849	0.746955	0.812133	0.850137	0.871864	0.889152	
488.0	0.579378	0.605337	0.677991	0.760536	0.819471	0.854033	0.873817	0.889696	
489.0	0.602432	0.628731	0.697803	0.772924	0.826204	0.857638	0.875607	0.89012	
490.0	0.626023	0.651689	0.716162	0.784218	0.832391	0.860977	0.877244	0.890427	
491.0	0.649256	0.673648	0.733039	0.794514	0.838085	0.86407	0.878736	0.890619	
492.0	0.67153	0.694275	0.748474	0.803905	0.843331	0.866936	0.880091	0.890697	
493.0	0.692481	0.713403	0.762545	0.812479	0.848172	0.869593	0.881314	0.890664	
494.0	0.711923	0.730986	0.775348	0.820316	0.852644	0.872056	0.882413	0.89052	
495.0	0.729799	0.747054	0.786989	0.82749	0.856781	0.874336	0.883391	0.890267	
496.0	0.746261	0.761799	0.797664	0.834129	0.860654	0.876478	0.884278	0.889926	
497.0	0.762257	0.776118	0.808087	0.840721	0.864589	0.878713	0.885248	0.88962	
498.0	0.776686	0.789029	0.817521	0.846749	0.868224	0.880772	0.886095	0.889209	
499.0	0.789688	0.800672	0.826073	0.852272	0.871583	0.882668	0.886827	0.888702	
500.0	0.801405	0.811178	0.83384	0.857342	0.874692	0.88441	0.88745	0.888116	
501.0	0.811968	0.820668	0.840905	0.862001	0.877568	0.886005	0.88797	0.887473	
502.0	0.821507	0.829258	0.847347	0.866292	0.880231	0.887464	0.888397	0.886809	
503.0	0.830134	0.837047	0.853233	0.87025	0.882696	0.888792	0.888739	0.886173	
504.0	0.837949	0.844121	0.858618	0.873903	0.884977	0.889995	0.88901	0.885638	
505.0	0.845044	0.850562	0.863557	0.877279	0.887086	0.891079	0.889227	0.885309	
506.0	0.851498	0.856436	0.868092	0.880403	0.889034	0.892049	0.889411	0.885337	
507.0	0.857383	0.861806	0.872267	0.883295	0.89083	0.89291	0.889594	0.885938	
508.0	0.862758	0.866724	0.876113	0.885973	0.892481	0.893668	0.889818	0.887418	
509.0	0.86768	0.871238	0.879664	0.888454	0.893996	0.894329	0.890141	0.890196	
510.0	0.872194	0.875386	0.882943	0.890751	0.895378	0.894897	0.890644	0.894834	
511.0	0.876342	0.879207	0.885977	0.892877	0.896633	0.895381	0.891442	0.90204	
512.0	0.880161	0.88273	0.888784	0.894842	0.897764	0.89579	0.89269	0.912618	
513.0	0.88368	0.885983	0.891384	0.896655	0.898774	0.896136	0.894603	0.927312	
514.0	0.88693	0.88899	0.893792	0.898324	0.899665	0.896438	0.897476	0.946496	
515.0	0.889934	0.891773	0.896022	0.899855	0.900437	0.896718	0.901697	0.969735	
516.0	0.892712	0.894349	0.898085	0.901252	0.901091	0.897009	0.907758	0.995436	
517.0	0.895241	0.896694	0.899956	0.90249	0.9016	0.897332	0.916148	1.020766	
518.0	0.897526	0.898811	0.901634	0.903562	0.901955	0.897737	0.92733	1.042861	
519.0	0.899648	0.900775	0.903181	0.904515	0.902193	0.898347	0.94185	1.060029	
520.0	0.901616	0.902594	0.904601	0.90535	0.90231	0.899281	0.959739	1.071501	
521.0	0.90344	0.904278	0.9059	0.906064	0.902303	0.900702	0.980326	1.077676	
522.0	0.905127	0.90583	0.907078	0.906653	0.902169	0.90283	1.002088	1.07962	
523.0	0.906684	0.907258	0.908138	0.907114	0.901903	0.905951	1.022848	1.078553	
524.0	0.908117	0.908564	0.909078	0.907439	0.901503	0.910421	1.040424	1.075551	
525.0	0.909429	0.909753	0.9099	0.907619	0.900971	0.916639	1.053358	1.071435	
526.0	0.910623	0.910824	0.910599	0.907644	0.900309	0.924985	1.061285	1.066775	
527.0	0.911701	0.911779	0.911171	0.907501	0.899533	0.935675	1.064752	1.061944	
528.0	0.912663	0.912616	0.911611	0.907172	0.898664	0.948577	1.06478	1.057171	
529.0	0.91351	0.913333	0.911911	0.906636	0.89775	0.963024	1.062456	1.052589	
530.0	0.914238	0.913928	0.912061	0.905869	0.896863	0.977811	1.058696	1.048267	
531.0	0.914845	0.914393	0.912047	0.904842	0.896119	0.991452	1.054183	1.044235	
532.0	0.915325	0.914722	0.911854	0.903519	0.895694	1.002665	1.049378	1.0405	
533.0	0.915671	0.914907	0.911463	0.901859	0.895832	1.01076	1.044572	1.037055	
534.0	0.915874	0.914934	0.910848	0.899815	0.896851	1.015723	1.039938	1.033885	
535.0	0.915924	0.914788	0.90998	0.897332	0.899109	1.018017	1.035565	1.030972	
536.0	0.915806	0.914452	0.908825	0.894354	0.902927	1.0183	1.031499	1.028294	
537.0	0.915502	0.913904	0.907337	0.890827	0.908455	1.017215	1.027749	1.025833	
538.0	0.914992	0.913115	0.905465	0.886704	0.915533	1.015287	1.02431	1.02357	
539.0	0.914249	0.912053	0.903144	0.881969	0.92365	1.0129	1.021165	1.021486	
540.0	0.913439	0.910867	0.900458	0.876721	0.932387	1.010416	1.018311	1.019571	
541.0	0.912334	0.909324	0.897147	0.870989	0.94069	1.007886	1.015715	1.017807	
542.0	0.910865	0.907339	0.893078	0.865052	0.947931	1.005412	1.013351	1.016182	
543.0	0.908971	0.904836	0.88812	0.85942	0.953834	1.003061	1.011201	1.014682	
544.0	0.906577	0.90172	0.882129	0.854829	0.958399	1.000866	1.009243	1.013297	
545.0	0.903594	0.897877	0.874962	0.852165	0.961791	0.99884	1.007459	1.012015	
546.0	0.899915	0.893171	0.866505	0.852222	0.964235	0.996984	1.005832	1.010829	
547.0	0.895405	0.887442	0.856706	0.855392	0.965954	0.995294	1.004346	1.009728	
548.0	0.889908	0.880507	0.845674	0.861458	0.967136	0.993759	1.002988	1.008707	
549.0	0.883243	0.872171	0.833768	0.869654	0.967933	0.992368	1.001745	1.007758	
550.0	0.875202	0.862239	0.821714	0.878959	0.968458	0.99111	1.000607	1.006875	
551.0	0.86557	0.850565	0.810668	0.888435	0.968795	0.989972	0.999563	1.006053	
552.0	0.854149	0.837122	0.802108	0.897413	0.969002	0.988944	0.998605	1.005287	
553.0	0.840816	0.822108	0.797484	0.905527	0.969124	0.988016	0.997725	1.004572	
554.0	0.825605	0.806094	0.797719	0.912644	0.96919	0.987177	0.996915	1.003904	
555.0	0.808855	0.79016	0.802819	0.918778	0.969222	0.98642	0.996169	1.00328	
556.0	0.791359	0.775914	0.811887	0.924017	0.969234	0.985735	0.995482	1.002696	
557.0	0.774485	0.765267	0.823507	0.928477	0.969237	0.985117	0.994849	1.002149	
558.0	0.760107	0.759915	0.836245	0.932278	0.969238	0.98456	0.994265	1.001637	
559.0	0.750262	0.760725	0.848972	0.935529	0.969242	0.984057	0.993725	1.001157	
560.0	0.74651	0.767392	0.86097	0.938324	0.969251	0.983603	0.993227	1.000706	
561.0	0.749352	0.778615	0.871872	0.940743	0.969268	0.983194	0.992766	1.000283	
562.0	0.758053	0.792638	0.881554	0.94285	0.969294	0.982825	0.992341	0.999886	
563.0	0.771003	0.807804	0.890044	0.9447	0.969328	0.982494	0.991947	0.999513	
564.0	0.786382	0.822875	0.897386	0.946275	0.969323	0.982157	0.991553	0.999141	
565.0	0.80251	0.837015	0.903667	0.947584	0.969255	0.981795	0.991144	0.99876	
566.0	0.81813	0.849812	0.9091	0.948747	0.9692	0.981464	0.990762	0.998399	
567.0	0.832595	0.861166	0.913813	0.949787	0.969157	0.98116	0.990405	0.998059	
568.0	0.84562	0.871126	0.917916	0.950724	0.969124	0.980882	0.990071	0.997736	
569.0	0.857156	0.879815	0.921505	0.951572	0.969103	0.980627	0.989759	0.99743	
570.0	0.867274	0.887379	0.924662	0.952345	0.969091	0.980394	0.989466	0.99714	
571.0	0.87611	0.893969	0.927451	0.953054	0.969087	0.980181	0.989193	0.996865	
572.0	0.883822	0.899726	0.929929	0.953707	0.969092	0.979986	0.988936	0.996604	
573.0	0.890556	0.904769	0.932142	0.954311	0.969105	0.979807	0.988695	0.996357	
574.0	0.896454	0.909208	0.934129	0.954873	0.969124	0.979644	0.98847	0.996121	
575.0	0.901635	0.91313	0.935921	0.955399	0.96915	0.979496	0.988258	0.995898	
576.0	0.906206	0.916612	0.937545	0.955891	0.969182	0.97936	0.98806	0.995685	
577.0	0.910256	0.919718	0.939023	0.956355	0.969219	0.979237	0.987874	0.995483	
578.0	0.91386	0.922501	0.940374	0.956793	0.969262	0.979126	0.987699	0.995291	
579.0	0.917081	0.925005	0.941614	0.957209	0.969308	0.979024	0.987535	0.995108	
580.0	0.919972	0.927268	0.942757	0.957603	0.969359	0.978933	0.987382	0.994934	
581.0	0.92258	0.929322	0.943814	0.957979	0.969414	0.978851	0.987238	0.994768	
582.0	0.92494	0.931195	0.944795	0.958339	0.969473	0.978777	0.987102	0.99461	
583.0	0.927086	0.932908	0.945708	0.958683	0.969534	0.978711	0.986975	0.99446	
584.0	0.929045	0.93448	0.946561	0.959013	0.969598	0.978652	0.986856	0.994316	
585.0	0.930838	0.935929	0.947359	0.959331	0.969666	0.9786	0.986745	0.994179	
586.0	0.932486	0.937269	0.948109	0.959637	0.969735	0.978555	0.98664	0.994049	
587.0	0.934007	0.938511	0.948816	0.959932	0.969806	0.978515	0.986543	0.993925	
588.0	0.935413	0.939666	0.949483	0.960217	0.96988	0.978481	0.986451	0.993806	
589.0	0.936718	0.940744	0.950114	0.960494	0.969955	0.978452	0.986365	0.993693	
590.0	0.937933	0.941752	0.950712	0.960762	0.970032	0.978428	0.986285	0.993585	
591.0	0.938989	0.942623	0.951212	0.960963	0.970061	0.978369	0.98618	0.993461	
592.0	0.939924	0.943389	0.951642	0.961119	0.97006	0.978289	0.98606	0.993329	
593.0	0.940795	0.944107	0.95205	0.961269	0.970061	0.978213	0.985946	0.993201	
594.0	0.94161	0.944781	0.952437	0.961416	0.970064	0.978142	0.985836	0.993079	
595.0	0.942374	0.945415	0.952804	0.961557	0.97007	0.978075	0.985732	0.992961	
596.0	0.943092	0.946013	0.953155	0.961695	0.970077	0.978013	0.985633	0.992847	
597.0	0.943767	0.946577	0.953489	0.961829	0.970087	0.977954	0.985537	0.992737	
598.0	0.944403	0.947112	0.953808	0.961959	0.970098	0.977899	0.985446	0.992631	
599.0	0.945005	0.947618	0.954114	0.962086	0.97011	0.977847	0.985359	0.99253	
600.0	0.945574	0.948099	0.954407	0.96221	0.970125	0.977799	0.985276	0.992432	
601.0	0.946113	0.948556	0.954688	0.96233	0.97014	0.977754	0.985197	0.992337	
602.0	0.946626	0.948991	0.954958	0.962448	0.970158	0.977712	0.985121	0.992246	
603.0	0.947113	0.949406	0.955217	0.962564	0.970176	0.977673	0.985048	0.992157	
604.0	0.947577	0.949803	0.955467	0.962676	0.970195	0.977637	0.984978	0.992072	
605.0	0.94802	0.950182	0.955709	0.962787	0.970216	0.977603	0.984912	0.99199	
606.0	0.948442	0.950546	0.955941	0.962895	0.970237	0.977571	0.984848	0.991911	
607.0	0.948846	0.950894	0.956166	0.963001	0.97026	0.977542	0.984787	0.991834	
608.0	0.949234	0.951228	0.956383	0.963105	0.970283	0.977515	0.984729	0.991761	
609.0	0.949605	0.95155	0.956594	0.963206	0.970308	0.97749	0.984673	0.991689	
610.0	0.949961	0.951859	0.956798	0.963307	0.970333	0.977466	0.98462	0.99162	
611.0	0.950303	0.952156	0.956995	0.963405	0.970358	0.977445	0.984569	0.991554	
612.0	0.950631	0.952443	0.957187	0.963501	0.970385	0.977426	0.98452	0.991489	
613.0	0.950948	0.95272	0.957373	0.963596	0.970412	0.977408	0.984474	0.991427	
614.0	0.951253	0.952987	0.957555	0.96369	0.970439	0.977392	0.984429	0.991367	
615.0	0.951548	0.953246	0.957731	0.963781	0.970467	0.977377	0.984387	0.991309	
616.0	0.951832	0.953496	0.957902	0.963872	0.970496	0.977364	0.984346	0.991252	
617.0	0.952107	0.953738	0.958069	0.963961	0.970525	0.977352	0.984307	0.991198	
618.0	0.952372	0.953972	0.958231	0.964048	0.970555	0.977342	0.98427	0.991146	
619.0	0.952629	0.954199	0.95839	0.964134	0.970584	0.977333	0.984234	0.991095	
620.0	0.952885	0.954427	0.95855	0.964224	0.970618	0.977327	0.984202	0.991046	
621.0	0.953198	0.954709	0.958759	0.964353	0.970682	0.977343	0.984182	0.991003	
622.0	0.953502	0.954983	0.958962	0.96448	0.970746	0.97736	0.984164	0.990962	
623.0	0.953796	0.955248	0.959161	0.964605	0.970809	0.977378	0.984148	0.990923	
624.0	0.954082	0.955507	0.959355	0.964728	0.970873	0.977396	0.984133	0.990885	
625.0	0.954359	0.955759	0.959545	0.964849	0.970937	0.977416	0.98412	0.990849	
626.0	0.954629	0.956004	0.959731	0.964969	0.971	0.977437	0.984108	0.990815	
627.0	0.954891	0.956242	0.959913	0.965087	0.971063	0.977458	0.984097	0.990782	
628.0	0.955147	0.956475	0.960091	0.965203	0.971127	0.97748	0.984088	0.99075	
629.0	0.955395	0.956702	0.960265	0.965318	0.97119	0.977502	0.984079	0.99072	
630.0	0.955638	0.956923	0.960436	0.965431	0.971252	0.977526	0.984072	0.990691	
631.0	0.955874	0.95714	0.960603	0.965542	0.971315	0.97755	0.984066	0.990664	
632.0	0.956104	0.957351	0.960767	0.965652	0.971377	0.977574	0.984061	0.990637	
633.0	0.956329	0.957557	0.960928	0.965761	0.97144	0.977599	0.984057	0.990612	
634.0	0.956549	0.957759	0.961086	0.965868	0.971502	0.977625	0.984054	0.990588	
635.0	0.956764	0.957957	0.961241	0.965974	0.971563	0.977651	0.984052	0.990565	
636.0	0.956973	0.95815	0.961394	0.966078	0.971625	0.977678	0.98405	0.990543	
637.0	0.957178	0.958339	0.961543	0.966181	0.971686	0.977704	0.98405	0.990522	
638.0	0.957379	0.958524	0.96169	0.966283	0.971747	0.977732	0.98405	0.990502	
639.0	0.957575	0.958705	0.961835	0.966384	0.971808	0.97776	0.984051	0.990483	
640.0	0.957767	0.958883	0.961977	0.966483	0.971868	0.977788	0.984053	0.990465	
641.0	0.957955	0.959057	0.962116	0.966582	0.971928	0.977816	0.984055	0.990448	
642.0	0.95814	0.959228	0.962254	0.966679	0.971988	0.977845	0.984058	0.990431	
643.0	0.95832	0.959396	0.962389	0.966775	0.972048	0.977874	0.984062	0.990416	
644.0	0.958498	0.95956	0.962522	0.96687	0.972107	0.977903	0.984066	0.990401	
645.0	0.958671	0.959722	0.962653	0.966964	0.972166	0.977932	0.984071	0.990387	
646.0	0.958842	0.959881	0.962782	0.967056	0.972225	0.977962	0.984077	0.990374	
647.0	0.959009	0.960036	0.962909	0.967148	0.972283	0.977992	0.984083	0.990361	
648.0	0.959173	0.96019	0.963034	0.967239	0.972341	0.978022	0.98409	0.990349	
649.0	0.959334	0.96034	0.963157	0.967329	0.972399	0.978052	0.984097	0.990338	
650.0	0.959493	0.960488	0.963279	0.967417	0.972457	0.978082	0.984104	0.990327	
651.0	0.959648	0.960633	0.963398	0.967505	0.972514	0.978113	0.984112	0.990317	
652.0	0.959801	0.960776	0.963516	0.967592	0.972571	0.978144	0.98412	0.990308	
653.0	0.959985	0.96095	0.963663	0.967706	0.972651	0.978194	0.984144	0.990309	
654.0	0.960217	0.96117	0.963855	0.967859	0.972766	0.978272	0.984189	0.990325	
655.0	0.960444	0.961387	0.964043	0.968011	0.972879	0.97835	0.984234	0.99034	
656.0	0.960669	0.961601	0.964229	0.968161	0.972992	0.978428	0.984279	0.990357	
657.0	0.960889	0.961811	0.964412	0.968309	0.973104	0.978505	0.984324	0.990373	
658.0	0.961106	0.962018	0.964593	0.968456	0.973215	0.978582	0.984369	0.99039	
659.0	0.96132	0.962222	0.964772	0.9686	0.973325	0.978658	0.984414	0.990407	
660.0	0.961531	0.962424	0.964948	0.968744	0.973433	0.978734	0.984459	0.990424	
661.0	0.961739	0.962622	0.965122	0.968885	0.973541	0.978809	0.984504	0.990441	
662.0	0.961943	0.962817	0.965293	0.969025	0.973648	0.978884	0.984548	0.990458	
663.0	0.962144	0.96301	0.965462	0.969164	0.973754	0.978958	0.984593	0.990476	
664.0	0.962343	0.963199	0.965629	0.969301	0.973858	0.979032	0.984637	0.990494	
665.0	0.962539	0.963387	0.965795	0.969436	0.973962	0.979105	0.984681	0.990512	
666.0	0.962732	0.963572	0.965958	0.96957	0.974065	0.979178	0.984726	0.99053	
667.0	0.962922	0.963754	0.966119	0.969702	0.974167	0.97925	0.98477	0.990548	
668.0	0.963109	0.963934	0.966277	0.969833	0.974268	0.979322	0.984814	0.990566	
669.0	0.963294	0.964111	0.966434	0.969963	0.974369	0.979393	0.984857	0.990585	
670.0	0.963477	0.964286	0.96659	0.970091	0.974468	0.979464	0.984901	0.990603	
671.0	0.963657	0.964459	0.966743	0.970218	0.974567	0.979535	0.984945	0.990622	
672.0	0.963835	0.964629	0.966894	0.970344	0.974664	0.979604	0.984988	0.990641	
673.0	0.96401	0.964797	0.967044	0.970468	0.974761	0.979674	0.985031	0.99066	
674.0	0.964183	0.964964	0.967192	0.970591	0.974857	0.979743	0.985074	0.990679	
675.0	0.964354	0.965128	0.967338	0.970713	0.974952	0.979811	0.985117	0.990698	
676.0	0.964522	0.96529	0.967483	0.970833	0.975046	0.97988	0.98516	0.990717	
677.0	0.964689	0.96545	0.967625	0.970953	0.97514	0.979947	0.985202	0.990736	
678.0	0.964853	0.965608	0.967767	0.971071	0.975232	0.980014	0.985245	0.990755	
679.0	0.965016	0.965765	0.967906	0.971188	0.975324	0.980081	0.985287	0.990774	
680.0	0.965176	0.965919	0.968044	0.971304	0.975415	0.980147	0.985329	0.990794	
681.0	0.965335	0.966071	0.968181	0.971418	0.975506	0.980213	0.985371	0.990813	
682.0	0.965491	0.966222	0.968316	0.971532	0.975595	0.980279	0.985412	0.990832	
683.0	0.965646	0.966371	0.96845	0.971644	0.975684	0.980343	0.985454	0.990852	
684.0	0.965799	0.966518	0.968582	0.971755	0.975772	0.980408	0.985495	0.990871	
685.0	0.965949	0.966664	0.968712	0.971866	0.97586	0.980472	0.985536	0.990891	
686.0	0.966099	0.966808	0.968842	0.971975	0.975946	0.980536	0.985577	0.99091	
687.0	0.966246	0.96695	0.96897	0.972083	0.976032	0.980599	0.985618	0.99093	
688.0	0.966392	0.96709	0.969096	0.97219	0.976117	0.980661	0.985658	0.990949	
689.0	0.966527	0.96722	0.969213	0.972288	0.976195	0.980718	0.985694	0.990966	
690.0	0.966623	0.967312	0.969294	0.972354	0.976245	0.980752	0.985713	0.99097	
691.0	0.966717	0.967403	0.969374	0.972419	0.976294	0.980785	0.985732	0.990976	
692.0	0.966811	0.967492	0.969453	0.972484	0.976343	0.980819	0.985751	0.990981	
693.0	0.966904	0.967581	0.969531	0.972548	0.976392	0.980852	0.985769	0.990986	
694.0	0.966995	0.967669	0.969609	0.972612	0.97644	0.980886	0.985788	0.990992	
695.0	0.967086	0.967756	0.969686	0.972675	0.976488	0.980919	0.985807	0.990998	
696.0	0.967176	0.967842	0.969762	0.972738	0.976536	0.980952	0.985826	0.991003	
697.0	0.967264	0.967927	0.969838	0.9728	0.976584	0.980985	0.985845	0.991009	
698.0	0.967352	0.968012	0.969913	0.972862	0.976631	0.981018	0.985863	0.991015	
699.0	0.967439	0.968095	0.969987	0.972923	0.976678	0.98105	0.985882	0.991022	
700.0	0.967526	0.968178	0.97006	0.972984	0.976725	0.981083	0.985901	0.991028	
701.0	0.967611	0.96826	0.970133	0.973044	0.976771	0.981115	0.98592	0.991034	
702.0	0.967695	0.968341	0.970205	0.973104	0.976817	0.981148	0.985939	0.991041	
703.0	0.967779	0.968422	0.970277	0.973163	0.976863	0.98118	0.985958	0.991047	
704.0	0.967862	0.968501	0.970348	0.973222	0.976908	0.981212	0.985977	0.991054	
705.0	0.967944	0.96858	0.970419	0.973281	0.976954	0.981243	0.985995	0.99106	
706.0	0.968025	0.968658	0.970488	0.973339	0.976999	0.981275	0.986014	0.991067	
707.0	0.968106	0.968736	0.970557	0.973397	0.977043	0.981307	0.986033	0.991074	
708.0	0.968186	0.968813	0.970626	0.973454	0.977088	0.981338	0.986052	0.991081	
709.0	0.968265	0.968889	0.970694	0.973511	0.977132	0.981369	0.98607	0.991088	
710.0	0.968343	0.968964	0.970762	0.973567	0.977176	0.981401	0.986089	0.991095	
711.0	0.968421	0.969039	0.970828	0.973623	0.977219	0.981432	0.986108	0.991102	
712.0	0.968498	0.969113	0.970895	0.973678	0.977263	0.981463	0.986126	0.991109	
713.0	0.968574	0.969186	0.970961	0.973734	0.977306	0.981493	0.986145	0.991116	
714.0	0.968649	0.969259	0.971026	0.973788	0.977349	0.981524	0.986164	0.991123	
715.0	0.968724	0.969331	0.971091	0.973843	0.977391	0.981555	0.986182	0.991131	
716.0	0.968798	0.969403	0.971155	0.973897	0.977434	0.981585	0.986201	0.991138	
717.0	0.968872	0.969474	0.971219	0.97395	0.977476	0.981615	0.98622	0.991145	
718.0	0.968945	0.969544	0.971282	0.974004	0.977518	0.981645	0.986238	0.991153	
719.0	0.969017	0.969614	0.971345	0.974057	0.977559	0.981675	0.986256	0.99116	
720.0	0.969089	0.969683	0.971407	0.974109	0.977601	0.981705	0.986275	0.991168	
721.0	0.96916	0.969752	0.971469	0.974161	0.977642	0.981735	0.986293	0.991176	
722.0	0.96923	0.96982	0.97153	0.974213	0.977683	0.981764	0.986311	0.991183	
723.0	0.9693	0.969887	0.971591	0.974264	0.977723	0.981794	0.98633	0.991191	
724.0	0.969369	0.969954	0.971651	0.974315	0.977763	0.981823	0.986348	0.991199	
725.0	0.969438	0.970021	0.971711	0.974366	0.977804	0.981852	0.986366	0.991206	
726.0	0.969507	0.970086	0.971771	0.974417	0.977844	0.981881	0.986385	0.991214	
727.0	0.969574	0.970152	0.97183	0.974467	0.977883	0.98191	0.986403	0.991222	
728.0	0.969641	0.970217	0.971889	0.974516	0.977923	0.981939	0.986421	0.99123	
729.0	0.969708	0.970281	0.971947	0.974566	0.977962	0.981968	0.986439	0.991238	
730.0	0.969827	0.970397	0.972054	0.97466	0.97804	0.982028	0.986481	0.991262	
731.0	0.969969	0.970535	0.972182	0.974772	0.978134	0.982102	0.986534	0.991293	
732.0	0.970109	0.970671	0.972308	0.974884	0.978228	0.982176	0.986586	0.991323	
733.0	0.970247	0.970806	0.972433	0.974994	0.97832	0.982248	0.986638	0.991354	
734.0	0.970384	0.97094	0.972557	0.975103	0.978412	0.98232	0.986689	0.991384	
735.0	0.97052	0.971073	0.97268	0.975212	0.978503	0.982392	0.98674	0.991414	
736.0	0.970655	0.971204	0.972802	0.975319	0.978593	0.982463	0.986791	0.991444	
737.0	0.970788	0.971334	0.972922	0.975426	0.978682	0.982533	0.986841	0.991474	
738.0	0.970921	0.971463	0.973042	0.975532	0.978771	0.982603	0.986891	0.991503	
739.0	0.971051	0.971591	0.973161	0.975636	0.978859	0.982673	0.98694	0.991533	
740.0	0.971181	0.971717	0.973278	0.97574	0.978946	0.982741	0.98699	0.991562	
741.0	0.97131	0.971842	0.973394	0.975843	0.979033	0.982809	0.987039	0.991591	
742.0	0.971437	0.971967	0.97351	0.975945	0.979119	0.982877	0.987087	0.99162	
743.0	0.971563	0.97209	0.973624	0.976047	0.979204	0.982945	0.987135	0.991649	
744.0	0.971688	0.972212	0.973737	0.976147	0.979288	0.983011	0.987183	0.991677	
745.0	0.971812	0.972333	0.97385	0.976246	0.979372	0.983077	0.987231	0.991706	
746.0	0.971935	0.972452	0.973961	0.976345	0.979455	0.983143	0.987278	0.991734	
747.0	0.972056	0.972571	0.974071	0.976443	0.979538	0.983208	0.987325	0.991762	
748.0	0.972177	0.972689	0.974181	0.97654	0.97962	0.983273	0.987371	0.99179	
749.0	0.972296	0.972805	0.97429	0.976636	0.979701	0.983337	0.987417	0.991817	
750.0	0.972415	0.972921	0.974397	0.976732	0.979781	0.983401	0.987463	0.991845	
751.0	0.972533	0.973036	0.974504	0.976826	0.979861	0.983464	0.987509	0.991872	
752.0	0.972649	0.973149	0.974609	0.97692	0.97994	0.983527	0.987554	0.991899	
753.0	0.972764	0.973262	0.974714	0.977013	0.980019	0.98359	0.987599	0.991926	
754.0	0.972878	0.973373	0.974818	0.977106	0.980097	0.983652	0.987644	0.991953	
755.0	0.972992	0.973484	0.974921	0.977198	0.980174	0.983713	0.987688	0.99198	
756.0	0.973104	0.973594	0.975024	0.977288	0.980251	0.983774	0.987732	0.992006	
757.0	0.973216	0.973703	0.975125	0.977379	0.980328	0.983835	0.987776	0.992033	
758.0	0.973326	0.973811	0.975225	0.977468	0.980403	0.983895	0.987819	0.992059	
759.0	0.973436	0.973918	0.975325	0.977557	0.980478	0.983954	0.987862	0.992085	
760.0	0.973544	0.974024	0.975424	0.977645	0.980553	0.984014	0.987905	0.992111	
761.0	0.973652	0.974129	0.975522	0.977732	0.980627	0.984072	0.987948	0.992137	
762.0	0.973759	0.974233	0.97562	0.977819	0.9807	0.984131	0.98799	0.992162	
763.0	0.973865	0.974337	0.975716	0.977905	0.980773	0.984189	0.988032	0.992187	
764.0	0.97397	0.974439	0.975812	0.97799	0.980845	0.984246	0.988074	0.992213	
765.0	0.974074	0.974541	0.975907	0.978075	0.980917	0.984303	0.988115	0.992238	
766.0	0.974177	0.974642	0.976001	0.978158	0.980988	0.98436	0.988156	0.992263	
767.0	0.97428	0.974742	0.976095	0.978242	0.981059	0.984416	0.988197	0.992288	
768.0	0.974381	0.974841	0.976187	0.978324	0.981129	0.984472	0.988238	0.992312	
769.0	0.974482	0.97494	0.976279	0.978407	0.981199	0.984528	0.988278	0.992337	
770.0	0.974582	0.975038	0.976371	0.978488	0.981268	0.984583	0.988318	0.992361	
771.0	0.974681	0.975135	0.976461	0.978569	0.981336	0.984638	0.988358	0.992385	
772.0	0.97478	0.975231	0.976551	0.978649	0.981404	0.984692	0.988397	0.99241	
773.0	0.974877	0.975326	0.97664	0.978729	0.981472	0.984746	0.988437	0.992433	
774.0	0.974974	0.975421	0.976728	0.978807	0.981539	0.9848	0.988476	0.992457	
775.0	0.975069	0.975514	0.976815	0.978885	0.981605	0.984852	0.988514	0.99248	
776.0	0.975153	0.975595	0.976891	0.978953	0.981662	0.984897	0.988546	0.992499	
777.0	0.975236	0.975677	0.976967	0.97902	0.981718	0.984942	0.988578	0.992518	
778.0	0.975318	0.975757	0.977042	0.979086	0.981774	0.984986	0.988609	0.992536	
779.0	0.9754	0.975837	0.977116	0.979152	0.98183	0.98503	0.988641	0.992555	
780.0	0.975481	0.975916	0.97719	0.979218	0.981885	0.985074	0.988672	0.992573	
781.0	0.975562	0.975995	0.977263	0.979283	0.98194	0.985117	0.988703	0.992592	
782.0	0.975641	0.976073	0.977336	0.979347	0.981995	0.98516	0.988734	0.99261	
783.0	0.97572	0.97615	0.977408	0.979411	0.982049	0.985203	0.988765	0.992628	
784.0	0.975799	0.976227	0.977479	0.979475	0.982102	0.985246	0.988795	0.992646	
785.0	0.975877	0.976303	0.97755	0.979538	0.982156	0.985288	0.988825	0.992664	
786.0	0.975954	0.976378	0.97762	0.9796	0.982209	0.98533	0.988855	0.992682	
787.0	0.97603	0.976453	0.97769	0.979662	0.982261	0.985371	0.988885	0.992699	
788.0	0.976106	0.976527	0.977759	0.979724	0.982313	0.985413	0.988915	0.992717	
789.0	0.976182	0.976601	0.977828	0.979785	0.982365	0.985454	0.988945	0.992735	
790.0	0.976256	0.976674	0.977896	0.979846	0.982416	0.985495	0.988974	0.992752	
791.0	0.976331	0.976746	0.977964	0.979906	0.982467	0.985535	0.989003	0.992769	
792.0	0.976404	0.976818	0.978031	0.979966	0.982518	0.985575	0.989032	0.992787	
793.0	0.976477	0.976889	0.978098	0.980025	0.982568	0.985615	0.989061	0.992804	
794.0	0.97655	0.97696	0.978164	0.980084	0.982618	0.985655	0.989089	0.992821	
795.0	0.976621	0.97703	0.978229	0.980143	0.982668	0.985694	0.989118	0.992838	
796.0	0.976693	0.9771	0.978294	0.980201	0.982717	0.985733	0.989146	0.992855	
797.0	0.976763	0.977169	0.978359	0.980259	0.982766	0.985772	0.989174	0.992872	
798.0	0.976834	0.977238	0.978423	0.980316	0.982814	0.985811	0.989202	0.992888	
799.0	0.976903	0.977306	0.978487	0.980373	0.982863	0.985849	0.98923	0.992905	
800.0	0.976973	0.977374	0.97855	0.980429	0.982911	0.985888	0.989257	0.992921	
801.0	0.977041	0.977441	0.978613	0.980485	0.982958	0.985925	0.989285	0.992938	
802.0	0.977109	0.977507	0.978675	0.980541	0.983005	0.985963	0.989312	0.992954	
803.0	0.977177	0.977574	0.978737	0.980596	0.983052	0.986001	0.989339	0.992971	
804.0	0.977244	0.977639	0.978798	0.980651	0.983099	0.986038	0.989366	0.992987	
805.0	0.977311	0.977704	0.978859	0.980705	0.983145	0.986074	0.989393	0.993003	
806.0	0.977377	0.977769	0.97892	0.980759	0.983191	0.986111	0.989419	0.993019	
807.0	0.977442	0.977833	0.97898	0.980813	0.983237	0.986148	0.989446	0.993035	
808.0	0.977507	0.977897	0.979039	0.980866	0.983282	0.986184	0.989472	0.993051	
809.0	0.977572	0.97796	0.979098	0.980919	0.983327	0.98622	0.989498	0.993066	
810.0	0.977636	0.978023	0.979157	0.980972	0.983372	0.986256	0.989524	0.993082	
811.0	0.9777	0.978085	0.979216	0.981024	0.983416	0.986291	0.98955	0.993098	
812.0	0.977763	0.978147	0.979274	0.981076	0.98346	0.986326	0.989576	0.993113	
813.0	0.977826	0.978208	0.979331	0.981127	0.983504	0.986361	0.989601	0.993129	
814.0	0.977889	0.978269	0.979388	0.981178	0.983548	0.986396	0.989626	0.993144	
815.0	0.977951	0.97833	0.979445	0.981229	0.983591	0.986431	0.989652	0.993159	
816.0	0.978012	0.97839	0.979501	0.981279	0.983634	0.986465	0.989677	0.993175	
817.0	0.978073	0.97845	0.979557	0.98133	0.983677	0.986499	0.989702	0.99319	
818.0	0.978134	0.978509	0.979613	0.981379	0.983719	0.986533	0.989726	0.993205	
819.0	0.978194	0.978568	0.979668	0.981429	0.983761	0.986567	0.989751	0.99322	
820.0	0.978254	0.978627	0.979723	0.981478	0.983803	0.986601	0.989775	0.993235	
821.0	0.978313	0.978685	0.979777	0.981527	0.983845	0.986634	0.9898	0.993249	
822.0	0.978372	0.978743	0.979831	0.981575	0.983886	0.986667	0.989824	0.993264	
823.0	0.97843	0.9788	0.979885	0.981623	0.983927	0.9867	0.989848	0.993279	
824.0	0.978488	0.978857	0.979938	0.981671	0.983968	0.986733	0.989872	0.993293	
825.0	0.978546	0.978913	0.979991	0.981718	0.984009	0.986765	0.989896	0.993308	
826.0	0.978604	0.978969	0.980044	0.981766	0.984049	0.986798	0.989919	0.993322	
827.0	0.978646	0.97901	0.980082	0.9818	0.984078	0.98682	0.989935	0.993332	
828.0	0.978665	0.979029	0.980099	0.981814	0.984089	0.986829	0.98994	0.993334	
829.0	0.978684	0.979048	0.980116	0.981829	0.984101	0.986837	0.989946	0.993335	
830.0	0.978703	0.979066	0.980133	0.981844	0.984113	0.986846	0.989951	0.993337	
831.0	0.978723	0.979085	0.98015	0.981858	0.984124	0.986854	0.989956	0.993339	
832.0	0.978742	0.979104	0.980167	0.981873	0.984136	0.986863	0.989961	0.993341	
833.0	0.978761	0.979122	0.980184	0.981887	0.984147	0.986871	0.989966	0.993343	
834.0	0.97878	0.979141	0.980201	0.981902	0.984159	0.98688	0.989972	0.993345	
835.0	0.978799	0.979159	0.980218	0.981916	0.984171	0.986888	0.989977	0.993347	
836.0	0.978818	0.979177	0.980234	0.98193	0.984182	0.986897	0.989982	0.993349	
837.0	0.978837	0.979196	0.980251	0.981945	0.984194	0.986905	0.989988	0.993351	
838.0	0.978855	0.979214	0.980268	0.981959	0.984205	0.986914	0.989993	0.993353	
839.0	0.978874	0.979232	0.980285	0.981974	0.984217	0.986922	0.989998	0.993355	
840.0	0.978893	0.97925	0.980301	0.981988	0.984228	0.986931	0.990004	0.993358	
841.0	0.978911	0.979268	0.980318	0.982002	0.98424	0.986939	0.990009	0.99336	
842.0	0.97893	0.979286	0.980334	0.982016	0.984251	0.986948	0.990014	0.993362	
843.0	0.978949	0.979304	0.980351	0.982031	0.984263	0.986956	0.99002	0.993364	
844.0	0.978967	0.979322	0.980367	0.982045	0.984275	0.986965	0.990025	0.993366	
845.0	0.978985	0.97934	0.980384	0.982059	0.984286	0.986973	0.99003	0.993369	
846.0	0.979004	0.979358	0.9804	0.982073	0.984298	0.986982	0.990036	0.993371	
847.0	0.979022	0.979376	0.980416	0.982087	0.984309	0.98699	0.990041	0.993373	
848.0	0.97904	0.979393	0.980432	0.982101	0.98432	0.986999	0.990047	0.993376	
849.0	0.979058	0.979411	0.980449	0.982115	0.984332	0.987007	0.990052	0.993378	
850.0	0.979076	0.979429	0.980465	0.98213	0.984343	0.987016	0.990058	0.99338	
851.0	0.979095	0.979446	0.980481	0.982144	0.984355	0.987024	0.990063	0.993383	
852.0	0.979113	0.979464	0.980497	0.982158	0.984366	0.987033	0.990069	0.993385	
853.0	0.979131	0.979481	0.980513	0.982171	0.984377	0.987041	0.990074	0.993388	
854.0	0.979148	0.979499	0.980529	0.982185	0.984389	0.98705	0.99008	0.99339	
855.0	0.979166	0.979516	0.980545	0.982199	0.9844	0.987058	0.990085	0.993393	
856.0	0.979184	0.979533	0.980561	0.982213	0.984411	0.987067	0.990091	0.993395	
857.0	0.979202	0.979551	0.980577	0.982227	0.984422	0.987075	0.990097	0.993398	
858.0	0.97922	0.979568	0.980593	0.982241	0.984434	0.987084	0.990102	0.9934	
859.0	0.979237	0.979585	0.980609	0.982255	0.984445	0.987092	0.990108	0.993403	
860.0	0.979255	0.979602	0.980624	0.982268	0.984456	0.987101	0.990113	0.993406	
861.0	0.979272	0.979619	0.98064	0.982282	0.984468	0.987109	0.990119	0.993408	
862.0	0.97929	0.979636	0.980656	0.982296	0.984479	0.987118	0.990124	0.993411	
863.0	0.979307	0.979653	0.980672	0.982309	0.98449	0.987126	0.99013	0.993413	
864.0	0.979325	0.97967	0.980687	0.982323	0.984501	0.987135	0.990135	0.993416	
865.0	0.979342	0.979687	0.980703	0.982337	0.984512	0.987143	0.990141	0.993419	
866.0	0.979359	0.979704	0.980718	0.98235	0.984523	0.987152	0.990147	0.993422	
867.0	0.979377	0.979721	0.980734	0.982364	0.984535	0.98716	0.990152	0.993424	
868.0	0.979394	0.979738	0.980749	0.982377	0.984546	0.987169	0.990158	0.993427	
869.0	0.979411	0.979754	0.980765	0.982391	0.984557	0.987177	0.990164	0.99343	
870.0	0.979428	0.979771	0.98078	0.982404	0.984568	0.987186	0.990169	0.993432	
871.0	0.979445	0.979788	0.980796	0.982418	0.984579	0.987194	0.990175	0.993435	
872.0	0.979462	0.979804	0.980811	0.982431	0.98459	0.987203	0.990181	0.993438	
873.0	0.979479	0.979821	0.980826	0.982445	0.984601	0.987211	0.990186	0.993441	
874.0	0.979496	0.979837	0.980841	0.982458	0.984612	0.987219	0.990192	0.993444	
875.0	0.979513	0.979854	0.980857	0.982471	0.984623	0.987228	0.990197	0.993446	
876.0	0.97953	0.97987	0.980872	0.982484	0.984634	0.987236	0.990203	0.993449	
877.0	0.979547	0.979886	0.980887	0.982498	0.984645	0.987244	0.990209	0.993452	
878.0	0.979564	0.979903	0.980902	0.982511	0.984656	0.987253	0.990214	0.993455	
879.0	0.97958	0.979919	0.980917	0.982524	0.984667	0.987261	0.99022	0.993458	
880.0	0.979597	0.979935	0.980932	0.982537	0.984678	0.98727	0.990226	0.993461	
881.0	0.979613	0.979951	0.980947	0.98255	0.984689	0.987278	0.990232	0.993464	
882.0	0.97963	0.979968	0.980962	0.982564	0.9847	0.987287	0.990237	0.993467	
883.0	0.979646	0.979984	0.980977	0.982577	0.984711	0.987295	0.990243	0.993469	
884.0	0.979663	0.98	0.980992	0.98259	0.984722	0.987303	0.990249	0.993472	
885.0	0.979679	0.980016	0.981007	0.982603	0.984732	0.987311	0.990254	0.993475	
886.0	0.979683	0.980019	0.98101	0.982605	0.984733	0.987312	0.990254	0.993474	
887.0	0.979668	0.980004	0.980995	0.982591	0.984721	0.9873	0.990244	0.993466	
888.0	0.979653	0.979989	0.98098	0.982577	0.984708	0.987289	0.990234	0.993459	
889.0	0.979638	0.979975	0.980966	0.982563	0.984695	0.987278	0.990225	0.993452	
890.0	0.979624	0.97996	0.980952	0.98255	0.984682	0.987266	0.990216	0.993444	
891.0	0.979609	0.979946	0.980938	0.982536	0.98467	0.987255	0.990206	0.993437	
892.0	0.979595	0.979932	0.980924	0.982523	0.984658	0.987244	0.990197	0.99343	
893.0	0.979581	0.979918	0.98091	0.98251	0.984646	0.987234	0.990188	0.993423	
894.0	0.979567	0.979904	0.980897	0.982497	0.984634	0.987223	0.990179	0.993416	
895.0	0.979554	0.979891	0.980884	0.982485	0.984622	0.987213	0.99017	0.993409	
896.0	0.97954	0.979877	0.980871	0.982472	0.98461	0.987202	0.990161	0.993402	
897.0	0.979527	0.979864	0.980858	0.98246	0.984599	0.987192	0.990153	0.993396	
898.0	0.979514	0.979851	0.980845	0.982447	0.984587	0.987182	0.990144	0.993389	
899.0	0.979501	0.979838	0.980832	0.982435	0.984576	0.987172	0.990136	0.993382	
900.0	0.979488	0.979825	0.98082	0.982423	0.984565	0.987162	0.990128	0.993376	
901.0	0.979475	0.979813	0.980808	0.982412	0.984554	0.987152	0.990119	0.993369	
902.0	0.979463	0.9798	0.980796	0.9824	0.984543	0.987142	0.990111	0.993363	
903.0	0.979451	0.979788	0.980784	0.982389	0.984533	0.987133	0.990103	0.993357	
904.0	0.979439	0.979776	0.980772	0.982377	0.984522	0.987124	0.990095	0.99335	
905.0	0.979427	0.979764	0.98076	0.982366	0.984512	0.987114	0.990087	0.993344	
906.0	0.979415	0.979753	0.980749	0.982355	0.984501	0.987105	0.99008	0.993338	
907.0	0.979403	0.979741	0.980737	0.982344	0.984491	0.987096	0.990072	0.993332	
908.0	0.979392	0.97973	0.980726	0.982334	0.984481	0.987087	0.990064	0.993326	
909.0	0.97938	0.979718	0.980715	0.982323	0.984471	0.987078	0.990057	0.99332	
910.0	0.979369	0.979707	0.980704	0.982313	0.984462	0.98707	0.99005	0.993315	
911.0	0.979358	0.979696	0.980693	0.982302	0.984452	0.987061	0.990042	0.993309	
912.0	0.979347	0.979686	0.980683	0.982292	0.984443	0.987052	0.990035	0.993303	
913.0	0.979337	0.979675	0.980672	0.982282	0.984433	0.987044	0.990028	0.993298	
914.0	0.979326	0.979664	0.980662	0.982272	0.984424	0.987036	0.990021	0.993292	
915.0	0.979316	0.979654	0.980652	0.982262	0.984415	0.987028	0.990014	0.993287	
916.0	0.979306	0.979644	0.980642	0.982253	0.984406	0.98702	0.990007	0.993281	
917.0	0.979295	0.979634	0.980632	0.982243	0.984397	0.987012	0.99	0.993276	
918.0	0.979285	0.979624	0.980622	0.982234	0.984388	0.987004	0.989994	0.993271	
919.0	0.979276	0.979614	0.980613	0.982224	0.98438	0.986996	0.989987	0.993265	
920.0	0.979266	0.979605	0.980603	0.982215	0.984371	0.986988	0.98998	0.99326	
921.0	0.979256	0.979595	0.980594	0.982206	0.984362	0.986981	0.989974	0.993255	
922.0	0.979247	0.979586	0.980585	0.982197	0.984354	0.986973	0.989968	0.99325	
923.0	0.979238	0.979576	0.980576	0.982189	0.984346	0.986966	0.989961	0.993245	
924.0	0.979229	0.979567	0.980567	0.98218	0.984338	0.986959	0.989955	0.99324	
925.0	0.979219	0.979558	0.980558	0.982171	0.98433	0.986951	0.989949	0.993235	
926.0	0.97921	0.979549	0.980549	0.982163	0.984322	0.986944	0.989943	0.993231	
927.0	0.979202	0.979541	0.98054	0.982155	0.984314	0.986937	0.989937	0.993226	
928.0	0.979193	0.979532	0.980532	0.982146	0.984307	0.98693	0.989931	0.993221	
929.0	0.979185	0.979524	0.980524	0.982138	0.984299	0.986923	0.989925	0.993216	
930.0	0.979176	0.979515	0.980515	0.98213	0.984291	0.986917	0.989919	0.993212	
931.0	0.979168	0.979507	0.980507	0.982123	0.984284	0.98691	0.989914	0.993207	
932.0	0.97916	0.979499	0.980499	0.982115	0.984277	0.986904	0.989908	0.993203	
933.0	0.979152	0.979491	0.980491	0.982107	0.98427	0.986897	0.989903	0.993199	
934.0	0.979144	0.979483	0.980484	0.9821	0.984263	0.986891	0.989897	0.993194	
935.0	0.979136	0.979475	0.980476	0.982092	0.984255	0.986884	0.989892	0.99319	
936.0	0.979129	0.979468	0.980468	0.982085	0.984249	0.986878	0.989886	0.993186	
937.0	0.979121	0.97946	0.980461	0.982078	0.984242	0.986872	0.989881	0.993181	
938.0	0.979114	0.979453	0.980454	0.982071	0.984235	0.986866	0.989876	0.993177	
939.0	0.979106	0.979445	0.980447	0.982064	0.984229	0.98686	0.989871	0.993173	
940.0	0.979099	0.979438	0.980439	0.982057	0.984222	0.986854	0.989866	0.993169	
941.0	0.979092	0.979431	0.980432	0.98205	0.984216	0.986848	0.989861	0.993165	
942.0	0.979085	0.979424	0.980425	0.982043	0.984209	0.986843	0.989856	0.993161	
943.0	0.979078	0.979417	0.980419	0.982037	0.984203	0.986837	0.989851	0.993157	
944.0	0.979071	0.979411	0.980412	0.98203	0.984197	0.986831	0.989846	0.993153	
945.0	0.979065	0.979404	0.980405	0.982024	0.984191	0.986826	0.989841	0.99315	
946.0	0.979058	0.979397	0.980399	0.982018	0.984185	0.98682	0.989837	0.993146	
947.0	0.979052	0.979391	0.980393	0.982011	0.984179	0.986815	0.989832	0.993142	
948.0	0.979045	0.979385	0.980386	0.982005	0.984173	0.98681	0.989828	0.993138	
949.0	0.979039	0.979378	0.98038	0.981999	0.984168	0.986805	0.989823	0.993135	
950.0	0.979033	0.979372	0.980374	0.981993	0.984162	0.986799	0.989819	0.993131	
951.0	0.979027	0.979366	0.980368	0.981987	0.984157	0.986794	0.989814	0.993128	
952.0	0.979021	0.97936	0.980362	0.981982	0.984151	0.986789	0.98981	0.993124	
953.0	0.979015	0.979354	0.980357	0.981976	0.984146	0.986785	0.989806	0.993121	
954.0	0.979014	0.979353	0.980355	0.981975	0.984144	0.986783	0.989804	0.993119	
955.0	0.979024	0.979363	0.980364	0.981983	0.984151	0.986788	0.989807	0.993121	
956.0	0.979034	0.979373	0.980374	0.981991	0.984157	0.986793	0.989811	0.993123	
957.0	0.979045	0.979383	0.980383	0.981999	0.984164	0.986798	0.989814	0.993125	
958.0	0.979055	0.979393	0.980392	0.982007	0.984171	0.986803	0.989818	0.993126	
959.0	0.979065	0.979403	0.980401	0.982015	0.984178	0.986809	0.989822	0.993128	
960.0	0.979075	0.979413	0.980411	0.982023	0.984184	0.986814	0.989825	0.99313	
961.0	0.979086	0.979423	0.98042	0.982031	0.984191	0.986819	0.989829	0.993132	
962.0	0.979096	0.979433	0.980429	0.982039	0.984198	0.986824	0.989832	0.993134	
963.0	0.979106	0.979443	0.980438	0.982048	0.984205	0.98683	0.989836	0.993136	
964.0	0.979116	0.979453	0.980448	0.982056	0.984212	0.986835	0.98984	0.993138	
965.0	0.979126	0.979463	0.980457	0.982064	0.984218	0.98684	0.989843	0.99314	
966.0	0.979137	0.979473	0.980466	0.982072	0.984225	0.986845	0.989847	0.993142	
967.0	0.979147	0.979483	0.980475	0.98208	0.984232	0.986851	0.989851	0.993144	
968.0	0.979157	0.979493	0.980484	0.982088	0.984239	0.986856	0.989854	0.993146	
969.0	0.979167	0.979503	0.980494	0.982097	0.984246	0.986861	0.989858	0.993148	
970.0	0.979177	0.979513	0.980503	0.982105	0.984253	0.986867	0.989862	0.99315	
971.0	0.979187	0.979523	0.980512	0.982113	0.984259	0.986872	0.989865	0.993152	
972.0	0.979198	0.979533	0.980522	0.982121	0.984266	0.986877	0.989869	0.993154	
973.0	0.979208	0.979542	0.980531	0.982129	0.984273	0.986883	0.989873	0.993156	
974.0	0.979218	0.979553	0.98054	0.982138	0.98428	0.986888	0.989876	0.993158	
975.0	0.979228	0.979562	0.980549	0.982146	0.984287	0.986893	0.98988	0.99316	
976.0	0.979238	0.979572	0.980559	0.982154	0.984294	0.986899	0.989884	0.993162	
977.0	0.979249	0.979582	0.980568	0.982162	0.9843	0.986904	0.989888	0.993164	
978.0	0.979259	0.979592	0.980577	0.98217	0.984307	0.986909	0.989892	0.993166	
979.0	0.979269	0.979602	0.980586	0.982179	0.984314	0.986915	0.989895	0.993168	
980.0	0.979279	0.979612	0.980596	0.982187	0.984321	0.98692	0.989899	0.99317	
981.0	0.979289	0.979622	0.980605	0.982195	0.984328	0.986926	0.989903	0.993173	
982.0	0.979299	0.979632	0.980614	0.982203	0.984335	0.986931	0.989907	0.993175	
983.0	0.97931	0.979642	0.980623	0.982211	0.984342	0.986936	0.989911	0.993177	
984.0	0.97932	0.979652	0.980633	0.98222	0.984349	0.986942	0.989914	0.993179	
985.0	0.97933	0.979662	0.980642	0.982228	0.984356	0.986947	0.989918	0.993181	
986.0	0.97934	0.979672	0.980651	0.982236	0.984363	0.986953	0.989922	0.993183	
987.0	0.97935	0.979681	0.98066	0.982244	0.98437	0.986958	0.989926	0.993185	
988.0	0.979361	0.979692	0.98067	0.982253	0.984376	0.986964	0.98993	0.993188	
989.0	0.979371	0.979701	0.980679	0.982261	0.984383	0.986969	0.989934	0.99319	
990.0	0.979381	0.979711	0.980688	0.982269	0.98439	0.986975	0.989937	0.993192	
991.0	0.979391	0.979721	0.980697	0.982277	0.984397	0.98698	0.989941	0.993194	
992.0	0.979401	0.979731	0.980707	0.982285	0.984404	0.986985	0.989945	0.993196	
993.0	0.979411	0.979741	0.980716	0.982294	0.984411	0.986991	0.989949	0.993199	
994.0	0.979421	0.979751	0.980725	0.982302	0.984418	0.986996	0.989953	0.993201	
995.0	0.979431	0.979761	0.980734	0.98231	0.984425	0.987002	0.989957	0.993203	
996.0	0.979442	0.979771	0.980744	0.982318	0.984432	0.987007	0.989961	0.993205	
997.0	0.979452	0.979781	0.980753	0.982327	0.984439	0.987013	0.989965	0.993208	
998.0	0.979462	0.979791	0.980762	0.982335	0.984446	0.987018	0.989969	0.99321	
999.0	0.979472	0.9798	0.980771	0.982343	0.984453	0.987024	0.989973	0.993212	
1000.0	0.979482	0.97981	0.98078	0.982351	0.98446	0.987029	0.989976	0.993214	
