Opt. Const. of Biaxial vs. nm
Wavelength (nm)	n Ordinary	k Ordinary	n Extra-ordinary	k Extra-ordinary
245.776154	1.717230	0.312556	1.552478	0.335127
247.357712	1.715350	0.306562	1.488941	0.312210
248.939362	1.712883	0.301342	1.455283	0.327547
250.521072	1.709979	0.296942	1.441936	0.346940
252.102859	1.706790	0.293380	1.437416	0.364906
253.684723	1.703467	0.290652	1.437495	0.381498
255.266678	1.700155	0.288723	1.440511	0.396916
256.848694	1.696986	0.287537	1.445607	0.411245
258.430786	1.694078	0.287016	1.452262	0.424523
260.012939	1.691527	0.287063	1.460117	0.436768
261.595184	1.689407	0.287566	1.468906	0.447991
263.177490	1.687767	0.288408	1.478421	0.458204
264.759857	1.686630	0.289466	1.488488	0.467419
266.342346	1.685992	0.290621	1.498962	0.475654
267.924866	1.685829	0.291761	1.509712	0.482930
269.507477	1.686093	0.292787	1.520624	0.489271
271.090149	1.686719	0.293614	1.531595	0.494705
272.672882	1.687629	0.294178	1.542530	0.499264
274.255676	1.688736	0.294433	1.553342	0.502983
275.838562	1.689950	0.294355	1.563949	0.505897
277.421509	1.691181	0.293939	1.574271	0.508048
279.004547	1.692343	0.293200	1.584234	0.509476
280.587616	1.693355	0.292171	1.593763	0.510226
282.170776	1.694152	0.290897	1.602782	0.510345
283.753998	1.694677	0.289437	1.611212	0.509882
285.337280	1.694889	0.287858	1.618968	0.508896
286.920654	1.694763	0.286234	1.625958	0.507451
288.504089	1.694289	0.284640	1.632077	0.505627
290.087555	1.693472	0.283152	1.637205	0.503526
291.671112	1.692332	0.281840	1.641213	0.501283
293.254730	1.690903	0.280773	1.643959	0.499080
294.838409	1.689229	0.280007	1.645305	0.497161
296.422180	1.687368	0.279592	1.645129	0.495853
298.005981	1.685381	0.279565	1.643364	0.495574
299.589844	1.683339	0.279952	1.640032	0.496844
301.173767	1.681315	0.280763	1.635304	0.500268
302.757782	1.679383	0.281999	1.629555	0.506504
304.341858	1.677614	0.283643	1.623418	0.516194
305.925964	1.676079	0.285671	1.617819	0.529859
307.510162	1.674841	0.288042	1.613964	0.547774
309.094391	1.673955	0.290708	1.613262	0.569817
310.678680	1.673469	0.293613	1.617172	0.595370
312.263062	1.673418	0.296692	1.626997	0.623272
313.847473	1.673829	0.299876	1.643649	0.651894
315.431946	1.674716	0.303094	1.667484	0.679313
317.016510	1.676080	0.306273	1.698215	0.703549
318.601105	1.677912	0.309341	1.734952	0.722805
320.185730	1.680194	0.312230	1.776333	0.735654
321.770447	1.682894	0.314877	1.820689	0.741145
323.355225	1.685977	0.317223	1.866222	0.738838
324.940063	1.689394	0.319216	1.911163	0.728775
326.524963	1.693095	0.320814	1.953890	0.711420
328.109863	1.697024	0.321981	1.993013	0.687574
329.694885	1.701121	0.322690	2.027435	0.658281
331.279907	1.705323	0.322922	2.056369	0.624743
332.865021	1.709568	0.322669	2.079348	0.588225
334.450165	1.713794	0.321927	2.096201	0.549990
336.035370	1.717940	0.320704	2.107029	0.511224
337.620636	1.721947	0.319012	2.112158	0.472993
339.205933	1.725760	0.316871	2.112092	0.436204
340.791321	1.729325	0.314307	2.107462	0.401584
342.376709	1.732595	0.311351	2.098977	0.369672
343.962189	1.735527	0.308039	2.087372	0.340825
345.547699	1.738082	0.304411	2.073373	0.315229
347.133240	1.740225	0.300510	2.057661	0.292924
348.718872	1.741928	0.296383	2.040848	0.273827
350.304535	1.743169	0.292077	2.023462	0.257762
351.890259	1.743929	0.287642	2.005939	0.244488
353.476013	1.744196	0.283130	1.988625	0.233727
355.061829	1.743962	0.278590	1.971777	0.225183
356.647675	1.743227	0.274076	1.955580	0.218561
358.233582	1.741992	0.269637	1.940150	0.213581
359.819550	1.740266	0.265323	1.925554	0.209983
361.405548	1.738062	0.261183	1.911818	0.207535
362.991577	1.735399	0.257264	1.898937	0.206034
364.577698	1.732297	0.253610	1.886883	0.205301
366.163818	1.728783	0.250263	1.875615	0.205185
367.749969	1.724888	0.247262	1.865082	0.205554
369.336212	1.720644	0.244642	1.855223	0.206300
370.922485	1.716090	0.242435	1.845975	0.207329
372.508789	1.711265	0.240669	1.837271	0.208564
374.095154	1.706210	0.239366	1.829039	0.209944
375.681519	1.700971	0.238546	1.821209	0.211419
377.267975	1.695593	0.238222	1.813707	0.212955
378.854431	1.690121	0.238404	1.806464	0.214528
380.440979	1.684604	0.239094	1.799407	0.216129
382.027527	1.679088	0.240291	1.792470	0.217760
383.614105	1.673617	0.241989	1.785589	0.219435
385.200745	1.668235	0.244174	1.778707	0.221180
386.787445	1.662983	0.246832	1.771773	0.223029
388.374146	1.657900	0.249939	1.764747	0.225027
389.960907	1.653019	0.253471	1.757596	0.227227
391.547699	1.648369	0.257399	1.750300	0.229687
393.134552	1.643975	0.261691	1.742849	0.232469
394.721405	1.639855	0.266314	1.735248	0.235639
396.308289	1.636023	0.271233	1.727514	0.239261
397.895264	1.632483	0.276415	1.719673	0.243400
399.482239	1.629236	0.281826	1.711770	0.248117
401.069244	1.626276	0.287437	1.703857	0.253466
402.656311	1.623591	0.293222	1.695999	0.259495
404.243378	1.621165	0.299161	1.688270	0.266240
405.830505	1.618977	0.305238	1.680754	0.273730
407.417664	1.617005	0.311449	1.673540	0.281978
409.004822	1.615226	0.317793	1.666721	0.290984
410.592041	1.613616	0.324283	1.660396	0.300736
412.179291	1.612157	0.330938	1.654660	0.311203
413.766541	1.610834	0.337784	1.649606	0.322341
415.353912	1.609642	0.344860	1.645325	0.334094
416.941223	1.608584	0.352208	1.641896	0.346386
418.528625	1.607675	0.359874	1.639391	0.359135
420.116028	1.606944	0.367908	1.637870	0.372244
421.703461	1.606437	0.376360	1.637378	0.385611
423.290924	1.606214	0.385272	1.637946	0.399125
424.878418	1.606349	0.394683	1.639590	0.412672
426.465912	1.606935	0.404615	1.642311	0.426140
428.053467	1.608074	0.415078	1.646094	0.439414
429.641052	1.609881	0.426059	1.650909	0.452386
431.228668	1.612474	0.437525	1.656715	0.464953
432.816315	1.615974	0.449415	1.663456	0.477020
434.403961	1.620497	0.461644	1.671070	0.488498
435.991638	1.626149	0.474100	1.679481	0.499311
437.579346	1.633019	0.486647	1.688612	0.509392
439.167084	1.641174	0.499129	1.698376	0.518684
440.754822	1.650656	0.511373	1.708684	0.527141
442.342621	1.661476	0.523193	1.719446	0.534728
443.930420	1.673613	0.534401	1.730569	0.541418
445.518250	1.687014	0.544808	1.741961	0.547194
447.106110	1.701595	0.554233	1.753527	0.552050
448.694000	1.717239	0.562509	1.765179	0.555983
450.281891	1.733805	0.569486	1.776824	0.559003
451.869812	1.751129	0.575037	1.788375	0.561123
453.457764	1.769024	0.579059	1.799744	0.562364
455.045715	1.787290	0.581476	1.810844	0.562751
456.633698	1.805716	0.582241	1.821589	0.562318
458.221680	1.824080	0.581336	1.831891	0.561101
459.809723	1.842155	0.578774	1.841664	0.559147
461.397766	1.859710	0.574597	1.850814	0.556507
462.985840	1.876508	0.568884	1.859247	0.553243
464.573883	1.892314	0.561752	1.866864	0.549430
466.162018	1.906894	0.553360	1.873559	0.545158
467.750092	1.920020	0.543925	1.879222	0.540542
469.338226	1.931484	0.533722	1.883743	0.535722
470.926361	1.941115	0.523103	1.887013	0.530876
472.514557	1.948805	0.512495	1.888934	0.526224
474.102722	1.954545	0.502404	1.889433	0.522035
475.690918	1.958465	0.493389	1.888474	0.518635
477.279144	1.960876	0.486028	1.886086	0.516401
478.867340	1.962304	0.480855	1.882384	0.515758
480.455566	1.963495	0.478274	1.877596	0.517161
482.043854	1.965390	0.478459	1.872091	0.521067
483.632141	1.969046	0.481256	1.866401	0.527887
485.220367	1.975510	0.486123	1.861220	0.537937
486.808685	1.985654	0.492119	1.857398	0.551370
488.396973	2.000013	0.497977	1.855895	0.568105
489.985291	2.018662	0.502250	1.857709	0.587779
491.573578	2.041160	0.503500	1.863778	0.609717
493.161957	2.066597	0.500499	1.874867	0.632947
494.750305	2.093696	0.492379	1.891465	0.656260
496.338623	2.120988	0.478733	1.913713	0.678314
497.927002	2.146977	0.459626	1.941375	0.697755
499.515381	2.170297	0.435560	1.973857	0.713334
501.103760	2.189830	0.407382	2.010267	0.724008
502.692139	2.204781	0.376175	2.049502	0.729007
504.280518	2.214713	0.343137	2.090338	0.727860
505.868958	2.219533	0.309469	2.131514	0.720403
507.457336	2.219458	0.276285	2.171808	0.706756
509.045746	2.214954	0.244531	2.210103	0.687284
510.634186	2.206665	0.214947	2.245423	0.662561
512.222595	2.195331	0.188041	2.276970	0.633313
513.811035	2.181726	0.164095	2.304137	0.600376
515.399475	2.166589	0.143188	2.326514	0.564644
516.987915	2.150579	0.125228	2.343886	0.527026
518.576355	2.134251	0.110003	2.356218	0.488411
520.164795	2.118035	0.097219	2.363637	0.449630
521.753296	2.102241	0.086544	2.366409	0.411428
523.341675	2.087072	0.077642	2.364909	0.374453
524.930176	2.072639	0.070194	2.359597	0.339234
526.518677	2.058981	0.063919	2.350986	0.306179
528.107056	2.046091	0.058578	2.339614	0.275579
529.695557	2.033925	0.053976	2.326020	0.247603
531.283997	2.022426	0.049956	2.310724	0.222322
532.872437	2.011527	0.046401	2.294206	0.199712
534.460938	2.001160	0.043219	2.276895	0.179677
536.049377	1.991265	0.040343	2.259163	0.162063
537.637817	1.981784	0.037721	2.241314	0.146673
539.226257	1.972668	0.035317	2.223592	0.133290
540.814758	1.963875	0.033102	2.206179	0.121683
542.403198	1.955367	0.031053	2.189201	0.111625
543.991638	1.947113	0.029152	2.172738	0.102898
545.580078	1.939086	0.027386	2.156831	0.095303
547.168518	1.931261	0.025742	2.141487	0.088660
548.756958	1.923618	0.024211	2.126691	0.082814
550.345337	1.916138	0.022782	2.112411	0.077633
551.933777	1.908804	0.021449	2.098604	0.073007
553.522217	1.901599	0.020205	2.085221	0.068846
555.110657	1.894510	0.019043	2.072210	0.065080
556.699036	1.887523	0.017960	2.059520	0.061652
558.287476	1.880626	0.016949	2.047101	0.058520
559.875854	1.873805	0.016007	2.034906	0.055654
561.464233	1.867050	0.015131	2.022893	0.053028
563.052612	1.860349	0.014319	2.011022	0.050629
564.640991	1.853691	0.013568	1.999257	0.048446
566.229309	1.847066	0.012877	1.987568	0.046473
567.817688	1.840464	0.012245	1.975925	0.044708
569.406006	1.833874	0.011673	1.964303	0.043152
570.994324	1.827286	0.011160	1.952678	0.041807
572.582642	1.820692	0.010707	1.941030	0.040680
574.170959	1.814080	0.010317	1.929340	0.039777
575.759216	1.807442	0.009993	1.917591	0.039108
577.347534	1.800769	0.009736	1.905768	0.038681
578.935791	1.794050	0.009552	1.893857	0.038509
580.524048	1.787278	0.009445	1.881845	0.038605
582.112305	1.780442	0.009420	1.869722	0.038984
583.700562	1.773536	0.009485	1.857478	0.039662
585.288757	1.766550	0.009647	1.845105	0.040656
586.876953	1.759477	0.009915	1.832596	0.041986
588.465149	1.752309	0.010297	1.819947	0.043671
590.053345	1.745040	0.010805	1.807153	0.045734
591.641479	1.737663	0.011449	1.794213	0.048199
593.229614	1.730172	0.012243	1.781129	0.051089
594.817749	1.722564	0.013199	1.767902	0.054432
596.405823	1.714833	0.014332	1.754538	0.058255
597.993958	1.706977	0.015659	1.741043	0.062587
599.581970	1.698996	0.017195	1.727431	0.067458
601.170044	1.690888	0.018958	1.713713	0.072898
602.758057	1.682654	0.020966	1.699906	0.078939
604.346069	1.674298	0.023238	1.686031	0.085615
605.934082	1.665824	0.025795	1.672112	0.092955
607.522095	1.657238	0.028656	1.658179	0.100995
609.109985	1.648549	0.031842	1.644264	0.109765
610.697937	1.639767	0.035375	1.630405	0.119297
612.285828	1.630905	0.039275	1.616645	0.129619
613.873718	1.621978	0.043565	1.603031	0.140761
615.461609	1.613004	0.048263	1.589616	0.152746
617.049438	1.604004	0.053391	1.576459	0.165595
618.637268	1.594999	0.058968	1.563623	0.179326
620.225037	1.586016	0.065012	1.551175	0.193950
621.812866	1.577083	0.071539	1.539189	0.209472
623.400574	1.568230	0.078565	1.527740	0.225890
624.988342	1.559491	0.086101	1.516909	0.243193
626.576050	1.550902	0.094158	1.506777	0.261363
628.163696	1.542501	0.102743	1.497427	0.280369
629.751343	1.534328	0.111860	1.488939	0.300173
631.338989	1.526424	0.121509	1.481394	0.320725
632.926575	1.518832	0.131685	1.474867	0.341963
634.514099	1.511598	0.142381	1.469427	0.363819
636.101685	1.504764	0.153584	1.465137	0.386212
637.689148	1.498376	0.165275	1.462050	0.409056
639.276672	1.492476	0.177433	1.460208	0.432256
640.864136	1.487107	0.190030	1.459644	0.455713
642.451538	1.482309	0.203034	1.460377	0.479327
644.038940	1.478118	0.216408	1.462415	0.502994
645.626343	1.474568	0.230112	1.465755	0.526615
647.213623	1.471689	0.244098	1.470381	0.550088
648.800903	1.469507	0.258321	1.476271	0.573321
650.388184	1.468040	0.272729	1.483388	0.596223
651.975464	1.467304	0.287268	1.491693	0.618713
653.562622	1.467307	0.301884	1.501136	0.640713
655.149780	1.468053	0.316523	1.511666	0.662156
656.736938	1.469540	0.331129	1.523224	0.682981
658.324097	1.471760	0.345650	1.535750	0.703132
659.911133	1.474699	0.360034	1.549183	0.722565
661.498169	1.478339	0.374230	1.563460	0.741239
663.085205	1.482658	0.388194	1.578518	0.759120
664.672180	1.487630	0.401880	1.594293	0.776180
666.259094	1.493224	0.415250	1.610725	0.792398
667.846008	1.499409	0.428268	1.627753	0.807758
669.432861	1.506149	0.440902	1.645316	0.822245
671.019653	1.513409	0.453126	1.663359	0.835851
672.606445	1.521151	0.464914	1.681824	0.848572
674.193237	1.529337	0.476249	1.700658	0.860406
675.779907	1.537929	0.487114	1.719810	0.871354
677.366577	1.546889	0.497498	1.739229	0.881420
678.953247	1.556180	0.507391	1.758867	0.890611
680.539856	1.565764	0.516790	1.778680	0.898936
682.126343	1.575607	0.525690	1.798621	0.906404
683.712891	1.585675	0.534094	1.818650	0.913030
685.299377	1.595935	0.542004	1.838727	0.918826
686.885803	1.606356	0.549424	1.858812	0.923808
688.472168	1.616908	0.556361	1.878870	0.927993
690.058533	1.627566	0.562824	1.898867	0.931400
691.644836	1.638302	0.568824	1.918768	0.934047
693.231079	1.649093	0.574370	1.938544	0.935956
694.817322	1.659917	0.579476	1.958164	0.937147
696.403442	1.670753	0.584153	1.977602	0.937643
697.989624	1.681584	0.588416	1.996831	0.937468
699.575684	1.692392	0.592279	2.015829	0.936644
701.161743	1.703162	0.595756	2.034572	0.935198
702.747742	1.713880	0.598861	2.053040	0.933153
704.333679	1.724535	0.601609	2.071215	0.930536
705.919556	1.735116	0.604014	2.089080	0.927372
707.505493	1.745613	0.606091	2.106621	0.923688
709.091248	1.756018	0.607854	2.123824	0.919510
710.677002	1.766324	0.609317	2.140678	0.914866
712.262756	1.776526	0.610492	2.157175	0.909780
713.848389	1.786618	0.611394	2.173306	0.904280
715.434021	1.796597	0.612034	2.189067	0.898392
717.019592	1.806460	0.612424	2.204453	0.892141
718.605103	1.816204	0.612576	2.219463	0.885551
720.190552	1.825827	0.612500	2.234097	0.878648
721.776001	1.835328	0.612208	2.248356	0.871454
723.361389	1.844707	0.611708	2.262243	0.863991
724.946655	1.853964	0.611009	2.275762	0.856281
726.531921	1.863098	0.610121	2.288918	0.848343
728.117126	1.872111	0.609051	2.301720	0.840195
729.702271	1.881002	0.607807	2.314175	0.831854
731.287415	1.889774	0.606395	2.326290	0.823336
732.872437	1.898427	0.604822	2.338077	0.814654
734.457458	1.906962	0.603093	2.349543	0.805820
736.042419	1.915381	0.601214	2.360699	0.796844
737.627319	1.923685	0.599190	2.371555	0.787735
739.212158	1.931875	0.597025	2.382121	0.778500
740.796936	1.939952	0.594724	2.392406	0.769144
742.381653	1.947918	0.592289	2.402419	0.759671
743.966309	1.955773	0.589725	2.412168	0.750083
745.550903	1.963519	0.587035	2.421661	0.740383
747.135498	1.971157	0.584221	2.430903	0.730569
748.719971	1.978686	0.581286	2.439899	0.720642
750.304443	1.986108	0.578233	2.448654	0.710599
751.888794	1.993423	0.575063	2.457170	0.700440
753.473145	2.000631	0.571779	2.465447	0.690162
755.057373	2.007731	0.568384	2.473487	0.679762
756.641602	2.014725	0.564877	2.481286	0.669238
758.225708	2.021612	0.561263	2.488843	0.658588
759.809814	2.028391	0.557542	2.496154	0.647811
761.393860	2.035061	0.553716	2.503212	0.636906
762.977783	2.041622	0.549787	2.510013	0.625873
764.561646	2.048074	0.545757	2.516548	0.614713
766.145508	2.054415	0.541628	2.522811	0.603427
767.729309	2.060644	0.537401	2.528793	0.592019
769.313049	2.066760	0.533079	2.534485	0.580494
770.896667	2.072762	0.528663	2.539878	0.568857
772.480225	2.078648	0.524155	2.544964	0.557115
774.063782	2.084418	0.519559	2.549733	0.545275
775.647217	2.090070	0.514875	2.554178	0.533349
777.230591	2.095602	0.510106	2.558291	0.521346
778.813904	2.101014	0.505256	2.562063	0.509278
780.397156	2.106304	0.500325	2.565490	0.497158
781.980347	2.111470	0.495317	2.568565	0.484999
783.563538	2.116512	0.490235	2.571285	0.472817
785.146606	2.121427	0.485081	2.573645	0.460627
786.729553	2.126215	0.479858	2.575643	0.448443
788.312500	2.130876	0.474570	2.577279	0.436283
789.895325	2.135406	0.469218	2.578553	0.424164
791.478149	2.139807	0.463807	2.579468	0.412100
793.060852	2.144075	0.458340	2.580024	0.400109
794.643433	2.148212	0.452820	2.580228	0.388208
796.226074	2.152216	0.447249	2.580085	0.376412
797.808533	2.156085	0.441633	2.579600	0.364737
799.390991	2.159822	0.435973	2.578783	0.353198
800.973328	2.163423	0.430274	2.577642	0.341809
802.555664	2.166890	0.424538	2.576187	0.330585
804.137817	2.170221	0.418770	2.574429	0.319537
805.720032	2.173418	0.412973	2.572378	0.308678
807.302124	2.176479	0.407150	2.570049	0.298020
808.884094	2.179405	0.401305	2.567453	0.287571
810.466003	2.182197	0.395442	2.564604	0.277342
812.047852	2.184855	0.389564	2.561516	0.267339
813.629639	2.187379	0.383674	2.558202	0.257570
815.211304	2.189770	0.377776	2.554677	0.248041
816.792969	2.192028	0.371873	2.550956	0.238757
818.374512	2.194155	0.365969	2.547052	0.229720
819.955933	2.196152	0.360067	2.542980	0.220935
821.537415	2.198019	0.354170	2.538754	0.212403
823.118774	2.199758	0.348281	2.534388	0.204125
824.700012	2.201370	0.342405	2.529896	0.196100
826.281128	2.202857	0.336543	2.525290	0.188329
827.862183	2.204219	0.330700	2.520583	0.180810
829.443237	2.205459	0.324877	2.515787	0.173540
831.024109	2.206578	0.319078	2.510916	0.166517
832.604980	2.207578	0.313305	2.505979	0.159737
834.185730	2.208461	0.307561	2.500988	0.153196
835.766418	2.209228	0.301850	2.495952	0.146890
837.347046	2.209882	0.296173	2.490881	0.140814
838.927612	2.210424	0.290533	2.485785	0.134964
840.507996	2.210857	0.284932	2.480672	0.129333
842.088379	2.211182	0.279373	2.475550	0.123916
843.668640	2.211402	0.273858	2.470425	0.118707
845.248840	2.211520	0.268389	2.465305	0.113700
846.828979	2.211536	0.262967	2.460196	0.108889
848.408997	2.211455	0.257596	2.455104	0.104268
849.988953	2.211277	0.252276	2.450034	0.099831
851.568848	2.211006	0.247010	2.444990	0.095572
853.148621	2.210643	0.241799	2.439978	0.091484
854.728333	2.210191	0.236645	2.435000	0.087562
856.307922	2.209653	0.231549	2.430060	0.083799
857.887390	2.209031	0.226512	2.425162	0.080190
859.466797	2.208327	0.221536	2.420308	0.076729
861.046204	2.207544	0.216622	2.415499	0.073410
862.625488	2.206684	0.211770	2.410740	0.070228
864.204590	2.205750	0.206984	2.406030	0.067178
865.783691	2.204743	0.202262	2.401373	0.064254
867.362671	2.203668	0.197605	2.396768	0.061451
868.941589	2.202525	0.193016	2.392218	0.058766
870.520386	2.201318	0.188493	2.387722	0.056192
872.099121	2.200048	0.184038	2.383283	0.053725
873.677734	2.198718	0.179652	2.378899	0.051362
875.256226	2.197331	0.175335	2.374573	0.049098
876.834778	2.195889	0.171086	2.370303	0.046929
878.413086	2.194394	0.166907	2.366090	0.044851
879.991394	2.192848	0.162798	2.361934	0.042860
881.569519	2.191253	0.158759	2.357836	0.040953
883.147644	2.189613	0.154789	2.353794	0.039127
884.725586	2.187928	0.150890	2.349809	0.037378
886.303528	2.186202	0.147060	2.345880	0.035703
887.881348	2.184436	0.143301	2.342007	0.034099
889.458984	2.182632	0.139611	2.338191	0.032563
891.036621	2.180793	0.135990	2.334429	0.031093
892.614136	2.178920	0.132439	2.330722	0.029685
894.191589	2.177015	0.128957	2.327069	0.028338
895.768860	2.175081	0.125544	2.323470	0.027048
897.346069	2.173118	0.122198	2.319924	0.025814
898.923218	2.171130	0.118921	2.316430	0.024633
900.500305	2.169117	0.115711	2.312988	0.023504
902.077271	2.167082	0.112568	2.309598	0.022423
903.653992	2.165026	0.109491	2.306258	0.021389
905.230774	2.162951	0.106480	2.302968	0.020400
906.807434	2.160858	0.103534	2.299727	0.019454
908.383972	2.158750	0.100652	2.296535	0.018550
909.960327	2.156627	0.097835	2.293391	0.017686
911.536743	2.154491	0.095080	2.290294	0.016859
913.112976	2.152344	0.092388	2.287244	0.016070
914.689087	2.150187	0.089757	2.284240	0.015315
916.265137	2.148021	0.087188	2.281280	0.014594
917.841003	2.145848	0.084678	2.278365	0.013905
919.416870	2.143668	0.082227	2.275494	0.013247
920.992554	2.141484	0.079835	2.272666	0.012619
922.568237	2.139296	0.077501	2.269880	0.012019
924.143738	2.137106	0.075223	2.267136	0.011446
925.719116	2.134914	0.073002	2.264432	0.010899
927.294556	2.132721	0.070835	2.261769	0.010377
928.869751	2.130530	0.068722	2.259146	0.009878
930.444824	2.128340	0.066663	2.256562	0.009403
932.019836	2.126153	0.064656	2.254015	0.008950
933.594604	2.123969	0.062700	2.251507	0.008517
935.169434	2.121789	0.060795	2.249035	0.008105
936.744141	2.119615	0.058940	2.246599	0.007711
938.318726	2.117447	0.057133	2.244199	0.007336
939.893188	2.115285	0.055374	2.241834	0.006978
941.467468	2.113131	0.053662	2.239503	0.006637
943.041809	2.110985	0.051996	2.237206	0.006313
944.615906	2.108848	0.050375	2.234942	0.006003
946.189941	2.106720	0.048798	2.232710	0.005708
947.763855	2.104602	0.047264	2.230510	0.005427
949.337585	2.102495	0.045773	2.228342	0.005159
950.911316	2.100399	0.044323	2.226203	0.004905
952.484985	2.098315	0.042914	2.224095	0.004662
954.058411	2.096243	0.041545	2.222017	0.004431
955.631714	2.094183	0.040214	2.219967	0.004211
957.204956	2.092136	0.038921	2.217945	0.004001
958.778137	2.090103	0.037665	2.215951	0.003802
960.351196	2.088083	0.036446	2.213985	0.003612
961.924011	2.086077	0.035262	2.212045	0.003432
963.496887	2.084085	0.034112	2.210131	0.003260
965.069519	2.082109	0.032997	2.208243	0.003096
966.642090	2.080147	0.031914	2.206380	0.002941
968.214539	2.078200	0.030863	2.204542	0.002793
969.786926	2.076268	0.029844	2.202728	0.002652
971.359070	2.074353	0.028856	2.200938	0.002519
972.931274	2.072453	0.027897	2.199170	0.002392
974.503235	2.070568	0.026967	2.197426	0.002271
976.075073	2.068700	0.026065	2.195703	0.002156
977.646790	2.066848	0.025192	2.194003	0.002047
979.218445	2.065013	0.024345	2.192324	0.001943
980.789917	2.063193	0.023524	2.190666	0.001844
982.361328	2.061391	0.022728	2.189028	0.001750
983.932617	2.059604	0.021958	2.187411	0.001661
985.503784	2.057835	0.021211	2.185813	0.001577
987.074829	2.056082	0.020488	2.184235	0.001496
988.645691	2.054346	0.019788	2.182675	0.001420
990.216492	2.052626	0.019110	2.181134	0.001347
991.787231	2.050923	0.018454	2.179612	0.001279
993.357727	2.049237	0.017819	2.178107	0.001213
994.928223	2.047567	0.017204	2.176620	0.001151
996.498413	2.045914	0.016609	2.175149	0.001092
998.068665	2.044278	0.016033	2.173696	0.001036
999.638794	2.042658	0.015476	2.172259	0.000983
1012.848328	2.029668	0.011456	2.160775	0.00063
1016.217773	2.026534	0.010601	2.158006	0.00056
1019.587708	2.023470	0.009807	2.155297	0.00050
1022.958313	2.020475	0.009069	2.152645	0.00044
1026.329468	2.017547	0.008383	2.150048	0.00039
1029.701294	2.014686	0.007748	2.147504	0.00035
1033.073608	2.011889	0.007158	2.145011	0.00031
1036.446533	2.009156	0.006612	2.142566	0.00028
1039.820190	2.006484	0.006105	2.140169	0.00025
1043.194336	2.003873	0.005636	2.137816	0.00022
1046.569092	2.001320	0.005201	2.135507	0.00020
1049.944458	1.998825	0.004799	2.133240	0.00017
1053.320435	1.996385	0.004427	2.131013	0.00016
1056.697021	1.994000	0.004083	2.128824	0.00014
1060.074097	1.991667	0.003765	2.126673	0.00012
1063.451904	1.989386	0.003470	2.124559	0.00011
1066.830200	1.987154	0.003199	2.122479	0.00010
1070.209106	1.984970	0.002947	2.120432	0.00009
1073.588623	1.982833	0.002716	2.118418	0.00008
1076.968750	1.980742	0.002502	2.116436	0.00007
1080.349487	1.978694	0.002304	2.114483	0.00006
1083.730835	1.976689	0.002122	2.112560	0.00005
1087.112793	1.974726	0.001953	2.110665	0.00005
1090.495239	1.972802	0.001798	2.108797	0.00004
1093.878418	1.970917	0.001655	2.106956	0.00004
1097.262085	1.969070	0.001524	2.105140	0.00003
1100.646362	1.967259	0.001402	2.103350	0.00003
1104.031250	1.965483	0.001290	2.101583	0.00002
1107.416748	1.963741	0.001187	2.099839	0.00002
1110.802856	1.962032	0.001092	2.098119	0.00002
1114.189575	1.960355	0.001004	2.096420	0.00002
1117.576904	1.958709	0.000924	2.094742	0.00001
1120.964722	1.957093	0.000850	2.093084	0.00001
1124.353271	1.955506	0.000781	2.091447	0.00001
1127.742310	1.953946	0.000719	2.089829	0.00001
1131.131958	1.952414	0.000661	2.088230	0.00001
1134.522217	1.950908	0.000607	2.086649	0.00001
1137.913086	1.949428	0.000559	2.085086	0.00001
1141.304565	1.947972	0.000513	2.083540	0.00000
1144.696533	1.946540	0.000472	2.082011	0.00000
1148.089233	1.945131	0.000434	2.080498	0.00000
1151.482544	1.943745	0.000399	2.079001	0.00000
1154.876343	1.942380	0.000367	2.077520	0.00000
1158.270752	1.941036	0.000337	2.076053	0.00000
1161.665771	1.939713	0.000310	2.074601	0.00000
1165.061523	1.938409	0.000285	2.073164	0.00000
1168.457764	1.937125	0.000262	2.071740	0.00000
1171.854492	1.935859	0.000241	2.070329	0.00000
1175.251953	1.934611	0.000221	2.068932	0.00000
1178.650024	1.933381	0.000203	2.067547	0.00000
1182.048584	1.932168	0.000187	2.066175	0.00000
1185.447876	1.930971	0.000172	2.064815	0.00000
1188.847656	1.929790	0.000158	2.063467	0.00000
1192.248047	1.928625	0.000145	2.062130	0.00000
1195.649048	1.927475	0.000133	2.060805	0.00000
1199.050537	1.926339	0.000123	2.059491	0.00000
1202.452881	1.925218	0.000113	2.058187	0.00000
1205.855591	1.924110	0.000104	2.056893	0.00000
1209.259033	1.923016	0.000095	2.055610	0.00000
1212.662964	1.921935	0.000088	2.054337	0.00000
1216.067627	1.920867	0.000081	2.053073	0.00000
1219.472778	1.919811	0.000074	2.051819	0.00000
1222.878540	1.918768	0.000068	2.050574	0.00000
1226.284912	1.917736	0.000063	2.049338	0.00000
1229.691772	1.916715	0.000058	2.048110	0.00000
1233.099365	1.915706	0.000053	2.046892	0.00000
1236.507568	1.914707	0.000049	2.045681	0.00000
1239.916260	1.913719	0.000045	2.044479	0.00000
1243.325562	1.912741	0.000041	2.043284	0.00000
1246.735596	1.911773	0.000038	2.042098	0.00000
1250.146118	1.910815	0.000035	2.040919	0.00000
1253.557251	1.909866	0.000032	2.039747	0.00000
1256.968994	1.908927	0.000030	2.038583	0.00000
1260.381226	1.907997	0.000027	2.037426	0.00000
1263.794189	1.907075	0.000025	2.036275	0.00000
1267.207764	1.906162	0.000023	2.035132	0.00000
1270.621826	1.905258	0.000021	2.033995	0.00000
1274.036499	1.904361	0.000019	2.032864	0.00000
1277.451904	1.903473	0.000018	2.031740	0.00000
1280.867676	1.902592	0.000017	2.030622	0.00000
1284.284180	1.901719	0.000015	2.029510	0.00000
1287.701294	1.900854	0.000014	2.028403	0.00000
1291.119019	1.899996	0.000013	2.027303	0.00000
1294.537354	1.899144	0.000012	2.026208	0.00000
1297.956177	1.898300	0.000011	2.025118	0.00000
1301.375610	1.897462	0.000010	2.024034	0.00000
1304.795654	1.896631	0.000009	2.022955	0.00000
1308.216431	1.895807	0.000009	2.021881	0.00000
1311.637573	1.894989	0.000008	2.020813	0.00000
1315.059448	1.894177	0.000007	2.019748	0.00000
1318.481934	1.893371	0.000007	2.018689	0.00000
1321.905029	1.892571	0.000006	2.017635	0.00000
1325.328613	1.891776	0.000006	2.016585	0.00000
1328.752808	1.890988	0.000005	2.015539	0.00000
1332.177734	1.890204	0.000005	2.014498	0.00000
1335.603149	1.889426	0.000004	2.013461	0.00000
1339.029175	1.888654	0.000004	2.012428	0.00000
1342.455811	1.887887	0.000004	2.011400	0.00000
1345.883057	1.887124	0.000003	2.010375	0.00000
1349.310791	1.886367	0.000003	2.009354	0.00000
1352.739258	1.885614	0.000003	2.008337	0.00000
1356.168213	1.884866	0.000003	2.007323	0.00000
1359.597900	1.884123	0.000003	2.006314	0.00000
1363.028076	1.883384	0.000002	2.005307	0.00000
1366.458740	1.882650	0.000002	2.004304	0.00000
1369.890259	1.881920	0.000002	2.003305	0.00000
1373.322144	1.881195	0.000002	2.002309	0.00000
1376.754761	1.880473	0.000002	2.001316	0.00000
1380.187866	1.879756	0.000002	2.000326	0.00000
1383.621704	1.879042	0.000001	1.999339	0.00000
1387.056030	1.878333	0.000001	1.998355	0.00000
1390.490967	1.877627	0.000001	1.997374	0.00000
1393.926514	1.876925	0.000001	1.996396	0.00000
1397.362671	1.876227	0.000001	1.995421	0.00000
1400.799438	1.875533	0.000001	1.994448	0.00000
1404.236816	1.874841	0.000001	1.993478	0.00000
1407.674683	1.874154	0.000001	1.992511	0.00000
1411.113281	1.873470	0.000001	1.991546	0.00000
1414.552368	1.872789	0.000001	1.990584	0.00000
1417.992065	1.872111	0.000001	1.989624	0.00000
1421.432373	1.871436	0.000001	1.988666	0.00000
1424.873291	1.870765	0.000001	1.987711	0.00000
1428.314819	1.870097	0.000001	1.986758	0.00000
1431.756958	1.869431	0.000000	1.985806	0.00000
1435.199585	1.868769	0.000000	1.984858	0.00000
1438.642944	1.868109	0.000000	1.983911	0.00000
1442.086792	1.867453	0.000000	1.982966	0.00000
1445.531372	1.866799	0.000000	1.982023	0.00000
1448.976318	1.866148	0.000000	1.981082	0.00000
1452.422119	1.865499	0.000000	1.980143	0.00000
1455.868408	1.864853	0.000000	1.979205	0.00000
1459.315186	1.864210	0.000000	1.978270	0.00000
1462.762695	1.863569	0.000000	1.977336	0.00000
1466.210693	1.862930	0.000000	1.976403	0.00000
1469.659424	1.862294	0.000000	1.975472	0.00000
1473.108643	1.861661	0.000000	1.974543	0.00000
1476.558350	1.861029	0.000000	1.973616	0.00000
1480.008911	1.860400	0.000000	1.972689	0.00000
1483.459839	1.859773	0.000000	1.971765	0.00000
1486.911499	1.859148	0.000000	1.970841	0.00000
1490.363770	1.858526	0.000000	1.969919	0.00000
1493.816650	1.857905	0.000000	1.968998	0.00000
1497.270020	1.857286	0.000000	1.968079	0.00000
1500.723999	1.856670	0.000000	1.967161	0.00000
1504.178589	1.856055	0.000000	1.966243	0.00000
1507.633789	1.855443	0.000000	1.965327	0.00000
1511.089600	1.854832	0.000000	1.964412	0.00000
1514.546021	1.854223	0.000000	1.963499	0.00000
1518.002930	1.853616	0.000000	1.962586	0.00000
1521.460571	1.853011	0.000000	1.961674	0.00000
1524.918701	1.852407	0.000000	1.960763	0.00000
1528.377441	1.851805	0.000000	1.959853	0.00000
1531.836792	1.851205	0.000000	1.958944	0.00000
1535.296753	1.850606	0.000000	1.958036	0.00000
1538.757324	1.850009	0.000000	1.957128	0.00000
1542.218506	1.849414	0.000000	1.956222	0.00000
1545.680176	1.848820	0.000000	1.955316	0.00000
1549.142456	1.848227	0.000000	1.954410	0.00000
1552.605469	1.847636	0.000000	1.953506	0.00000
1556.068970	1.847047	0.000000	1.952602	0.00000
1559.533081	1.846458	0.000000	1.951699	0.00000
1562.997803	1.845872	0.000000	1.950796	0.00000
1566.463135	1.845286	0.000000	1.949894	0.00000
1569.928955	1.844702	0.000000	1.948992	0.00000
1573.395508	1.844119	0.000000	1.948091	0.00000
1576.862549	1.843538	0.000000	1.947191	0.00000
1580.330322	1.842957	0.000000	1.946291	0.00000
1583.798584	1.842378	0.000000	1.945391	0.00000
1587.267456	1.841800	0.000000	1.944491	0.00000
1590.736938	1.841223	0.000000	1.943592	0.00000
1594.207031	1.840648	0.000000	1.942694	0.00000
1597.677612	1.840073	0.000000	1.941795	0.00000
1601.148926	1.839499	0.000000	1.940897	0.00000
1604.620850	1.838927	0.000000	1.939999	0.00000
1608.093140	1.838356	0.000000	1.939102	0.00000
1611.566162	1.837785	0.000000	1.938204	0.00000
1615.039795	1.837216	0.000000	1.937307	0.00000
1618.514038	1.836647	0.000000	1.936410	0.00000
1621.989014	1.836079	0.000000	1.935513	0.00000
1625.464355	1.835513	0.000000	1.934616	0.00000
1628.940308	1.834947	0.000000	1.933720	0.00000
1632.416992	1.834382	0.000000	1.932823	0.00000
1635.894165	1.833818	0.000000	1.931926	0.00000
1639.371826	1.833255	0.000000	1.931030	0.00000
1642.850342	1.832692	0.000000	1.930133	0.00000
1646.329346	1.832131	0.000000	1.929236	0.00000
1649.808960	1.831570	0.000000	1.928339	0.00000
1653.289063	1.831010	0.000000	1.927443	0.00000
1656.769897	1.830450	0.000000	1.926546	0.00000
1660.251221	1.829892	0.000000	1.925649	0.00000
1663.733154	1.829333	0.000000	1.924752	0.00000
1667.215820	1.828776	0.000000	1.923854	0.00000
1670.698853	1.828219	0.000000	1.922957	0.00000
1674.182617	1.827663	0.000000	1.922059	0.00000
1677.666992	1.827108	0.000000	1.921161	0.00000
1681.151978	1.826553	0.000000	1.920263	0.00000
1684.637451	1.825999	0.000000	1.919365	0.00000
1688.123413	1.825445	0.000000	1.918466	0.000000
