Opt. Const. of Gen-Osc vs. nm
Wavelength (nm)	n	k
245.776154	1.411822	0.002909
247.357712	1.411282	0.002905
248.939362	1.410756	0.002899
250.521072	1.410244	0.002894
252.102859	1.409746	0.002887
253.684723	1.409262	0.002880
255.266678	1.408789	0.002873
256.848694	1.408329	0.002864
258.430786	1.407881	0.002855
260.012939	1.407445	0.002845
261.595184	1.407019	0.002834
263.177490	1.406604	0.002822
264.759857	1.406199	0.002809
266.342346	1.405804	0.002796
267.924866	1.405418	0.002781
269.507477	1.405041	0.002766
271.090149	1.404673	0.002750
272.672882	1.404314	0.002733
274.255676	1.403963	0.002715
275.838562	1.403619	0.002696
277.421509	1.403283	0.002676
279.004547	1.402955	0.002655
280.587616	1.402633	0.002634
282.170776	1.402318	0.002612
283.753998	1.402010	0.002588
285.337280	1.401708	0.002565
286.920654	1.401411	0.002540
288.504089	1.401121	0.002515
290.087555	1.400836	0.002489
291.671112	1.400556	0.002462
293.254730	1.400282	0.002435
294.838409	1.400012	0.002407
296.422180	1.399747	0.002379
298.005981	1.399487	0.002350
299.589844	1.399231	0.002321
301.173767	1.398980	0.002291
302.757782	1.398732	0.002261
304.341858	1.398489	0.002231
305.925964	1.398249	0.002201
307.510162	1.398013	0.002170
309.094391	1.397780	0.002140
310.678680	1.397551	0.002109
312.263062	1.397325	0.002078
313.847473	1.397103	0.002047
315.431946	1.396883	0.002017
317.016510	1.396667	0.001986
318.601105	1.396453	0.001956
320.185730	1.396242	0.001926
321.770447	1.396035	0.001896
323.355225	1.395829	0.001866
324.940063	1.395627	0.001837
326.524963	1.395427	0.001809
328.109863	1.395229	0.001781
329.694885	1.395034	0.001753
331.279907	1.394842	0.001726
332.865021	1.394652	0.001700
334.450165	1.394464	0.001675
336.035370	1.394279	0.001650
337.620636	1.394096	0.001626
339.205933	1.393915	0.001603
340.791321	1.393736	0.001581
342.376709	1.393560	0.001560
343.962189	1.393387	0.001540
345.547699	1.393215	0.001521
347.133240	1.393047	0.001502
348.718872	1.392880	0.001486
350.304535	1.392717	0.001470
351.890259	1.392556	0.001455
353.476013	1.392398	0.001442
355.061829	1.392244	0.001430
356.647675	1.392093	0.001417
358.233582	1.391945	0.001404
359.819550	1.391800	0.001391
361.405548	1.391658	0.001378
362.991577	1.391518	0.001365
364.577698	1.391379	0.001352
366.163818	1.391244	0.001338
367.749969	1.391110	0.001325
369.336212	1.390978	0.001311
370.922485	1.390848	0.001298
372.508789	1.390720	0.001284
374.095154	1.390594	0.001270
375.681519	1.390469	0.001256
377.267975	1.390346	0.001242
378.854431	1.390225	0.001228
380.440979	1.390105	0.001215
382.027527	1.389987	0.001201
383.614105	1.389871	0.001187
385.200745	1.389756	0.001173
386.787445	1.389642	0.001159
388.374146	1.389530	0.001145
389.960907	1.389419	0.001132
391.547699	1.389310	0.001118
393.134552	1.389202	0.001104
394.721405	1.389095	0.001091
396.308289	1.388990	0.001077
397.895264	1.388886	0.001064
399.482239	1.388783	0.001050
401.069244	1.388681	0.001037
402.656311	1.388581	0.001024
404.243378	1.388481	0.001011
405.830505	1.388383	0.000998
407.417664	1.388286	0.000985
409.004822	1.388190	0.000972
410.592041	1.388095	0.000959
412.179291	1.388001	0.000946
413.766541	1.387908	0.000934
415.353912	1.387817	0.000921
416.941223	1.387726	0.000909
418.528625	1.387636	0.000897
420.116028	1.387547	0.000885
421.703461	1.387460	0.000873
423.290924	1.387373	0.000861
424.878418	1.387287	0.000849
426.465912	1.387202	0.000838
428.053467	1.387118	0.000826
429.641052	1.387034	0.000815
431.228668	1.386952	0.000804
432.816315	1.386871	0.000793
434.403961	1.386790	0.000782
435.991638	1.386710	0.000771
437.579346	1.386631	0.000760
439.167084	1.386553	0.000750
440.754822	1.386476	0.000739
442.342621	1.386400	0.000729
443.930420	1.386324	0.000719
445.518250	1.386249	0.000709
447.106110	1.386175	0.000699
448.694000	1.386101	0.000689
450.281891	1.386029	0.000679
451.869812	1.385957	0.000670
453.457764	1.385886	0.000660
455.045715	1.385815	0.000651
456.633698	1.385745	0.000642
458.221680	1.385676	0.000633
459.809723	1.385608	0.000624
461.397766	1.385540	0.000615
462.985840	1.385473	0.000606
464.573883	1.385407	0.000598
466.162018	1.385341	0.000589
467.750092	1.385276	0.000581
469.338226	1.385212	0.000573
470.926361	1.385148	0.000565
472.514557	1.385085	0.000557
474.102722	1.385022	0.000549
475.690918	1.384960	0.000541
477.279144	1.384899	0.000534
478.867340	1.384838	0.000526
480.455566	1.384778	0.000519
482.043854	1.384718	0.000511
483.632141	1.384659	0.000504
485.220367	1.384601	0.000497
486.808685	1.384543	0.000490
488.396973	1.384486	0.000483
489.985291	1.384429	0.000476
491.573578	1.384373	0.000470
493.161957	1.384317	0.000463
494.750305	1.384262	0.000456
496.338623	1.384207	0.000450
497.927002	1.384153	0.000444
499.515381	1.384099	0.000437
501.103760	1.384046	0.000431
502.692139	1.383994	0.000425
504.280518	1.383941	0.000419
505.868958	1.383890	0.000414
507.457336	1.383839	0.000408
509.045746	1.383788	0.000402
510.634186	1.383737	0.000396
512.222595	1.383688	0.000391
513.811035	1.383638	0.000386
515.399475	1.383590	0.000380
516.987915	1.383541	0.000375
518.576355	1.383493	0.000370
520.164795	1.383446	0.000365
521.753296	1.383398	0.000360
523.341675	1.383352	0.000355
524.930176	1.383305	0.000350
526.518677	1.383260	0.000345
528.107056	1.383214	0.000340
529.695557	1.383169	0.000336
531.283997	1.383124	0.000331
532.872437	1.383080	0.000327
534.460938	1.383036	0.000322
536.049377	1.382993	0.000318
537.637817	1.382950	0.000313
539.226257	1.382907	0.000309
540.814758	1.382865	0.000305
542.403198	1.382823	0.000301
543.991638	1.382781	0.000297
545.580078	1.382740	0.000293
547.168518	1.382699	0.000289
548.756958	1.382659	0.000285
550.345337	1.382619	0.000281
551.933777	1.382579	0.000278
553.522217	1.382540	0.000274
555.110657	1.382500	0.000270
556.699036	1.382462	0.000267
558.287476	1.382423	0.000263
559.875854	1.382385	0.000260
561.464233	1.382347	0.000256
563.052612	1.382310	0.000253
564.640991	1.382273	0.000249
566.229309	1.382236	0.000246
567.817688	1.382200	0.000243
569.406006	1.382163	0.000240
570.994324	1.382128	0.000237
572.582642	1.382092	0.000234
574.170959	1.382057	0.000231
575.759216	1.382022	0.000228
577.347534	1.381987	0.000225
578.935791	1.381953	0.000222
580.524048	1.381919	0.000219
582.112305	1.381885	0.000216
583.700562	1.381851	0.000213
585.288757	1.381818	0.000211
586.876953	1.381785	0.000208
588.465149	1.381752	0.000205
590.053345	1.381720	0.000203
591.641479	1.381688	0.000200
593.229614	1.381656	0.000198
594.817749	1.381624	0.000195
596.405823	1.381593	0.000193
597.993958	1.381562	0.000190
599.581970	1.381531	0.000188
601.170044	1.381500	0.000186
602.758057	1.381470	0.000183
604.346069	1.381440	0.000181
605.934082	1.381410	0.000179
607.522095	1.381380	0.000177
609.109985	1.381351	0.000174
610.697937	1.381321	0.000172
612.285828	1.381292	0.000170
613.873718	1.381264	0.000168
615.461609	1.381235	0.000166
617.049438	1.381207	0.000164
618.637268	1.381179	0.000162
620.225037	1.381151	0.000160
621.812866	1.381124	0.000158
623.400574	1.381096	0.000156
624.988342	1.381069	0.000154
626.576050	1.381042	0.000152
628.163696	1.381015	0.000151
629.751343	1.380989	0.000149
631.338989	1.380962	0.000147
632.926575	1.380936	0.000145
634.514099	1.380910	0.000144
636.101685	1.380885	0.000142
637.689148	1.380859	0.000140
639.276672	1.380834	0.000139
640.864136	1.380809	0.000137
642.451538	1.380784	0.000135
644.038940	1.380759	0.000134
645.626343	1.380734	0.000132
647.213623	1.380710	0.000131
648.800903	1.380686	0.000129
650.388184	1.380662	0.000128
651.975464	1.380638	0.000126
653.562622	1.380614	0.000125
655.149780	1.380591	0.000123
656.736938	1.380568	0.000122
658.324097	1.380545	0.000121
659.911133	1.380522	0.000119
661.498169	1.380499	0.000118
663.085205	1.380476	0.000117
664.672180	1.380454	0.000115
666.259094	1.380432	0.000114
667.846008	1.380409	0.000113
669.432861	1.380387	0.000111
671.019653	1.380366	0.000110
672.606445	1.380344	0.000109
674.193237	1.380323	0.000108
675.779907	1.380301	0.000107
677.366577	1.380280	0.000105
678.953247	1.380259	0.000104
680.539856	1.380238	0.000103
682.126343	1.380218	0.000102
683.712891	1.380197	0.000101
685.299377	1.380177	0.000100
686.885803	1.380156	0.000099
688.472168	1.380136	0.000098
690.058533	1.380116	0.000097
691.644836	1.380097	0.000096
693.231079	1.380077	0.000094
694.817322	1.380057	0.000093
696.403442	1.380038	0.000092
697.989624	1.380019	0.000091
699.575684	1.380000	0.000091
701.161743	1.379981	0.000090
702.747742	1.379962	0.000089
704.333679	1.379943	0.000088
705.919556	1.379924	0.000087
707.505493	1.379906	0.000086
709.091248	1.379888	0.000085
710.677002	1.379869	0.000084
712.262756	1.379851	0.000083
713.848389	1.379833	0.000082
715.434021	1.379815	0.000081
717.019592	1.379798	0.000081
718.605103	1.379780	0.000080
720.190552	1.379763	0.000079
721.776001	1.379745	0.000078
723.361389	1.379728	0.000077
724.946655	1.379711	0.000077
726.531921	1.379694	0.000076
728.117126	1.379677	0.000075
729.702271	1.379660	0.000074
731.287415	1.379644	0.000074
732.872437	1.379627	0.000073
734.457458	1.379611	0.000072
736.042419	1.379594	0.000071
737.627319	1.379578	0.000071
739.212158	1.379562	0.000070
740.796936	1.379546	0.000069
742.381653	1.379530	0.000069
743.966309	1.379514	0.000068
745.550903	1.379499	0.000067
747.135498	1.379483	0.000067
748.719971	1.379468	0.000066
750.304443	1.379452	0.000065
751.888794	1.379437	0.000065
753.473145	1.379422	0.000064
755.057373	1.379407	0.000063
756.641602	1.379392	0.000063
758.225708	1.379377	0.000062
759.809814	1.379362	0.000062
761.393860	1.379348	0.000061
762.977783	1.379333	0.000060
764.561646	1.379318	0.000060
766.145508	1.379304	0.000059
767.729309	1.379290	0.000059
769.313049	1.379276	0.000058
770.896667	1.379261	0.000058
772.480225	1.379247	0.000057
774.063782	1.379233	0.000057
775.647217	1.379220	0.000056
777.230591	1.379206	0.000056
778.813904	1.379192	0.000055
780.397156	1.379179	0.000055
781.980347	1.379165	0.000054
783.563538	1.379152	0.000054
785.146606	1.379138	0.000053
786.729553	1.379125	0.000053
788.312500	1.379112	0.000052
789.895325	1.379099	0.000052
791.478149	1.379086	0.000051
793.060852	1.379073	0.000051
794.643433	1.379060	0.000050
796.226074	1.379047	0.000050
797.808533	1.379035	0.000049
799.390991	1.379022	0.000049
800.973328	1.379010	0.000048
802.555664	1.378997	0.000048
804.137817	1.378985	0.000048
805.720032	1.378973	0.000047
807.302124	1.378960	0.000047
808.884094	1.378948	0.000046
810.466003	1.378936	0.000046
812.047852	1.378924	0.000046
813.629639	1.378912	0.000045
815.211304	1.378900	0.000045
816.792969	1.378888	0.000044
818.374512	1.378877	0.000044
819.955933	1.378865	0.000044
821.537415	1.378854	0.000043
823.118774	1.378842	0.000043
824.700012	1.378831	0.000042
826.281128	1.378819	0.000042
827.862183	1.378808	0.000042
829.443237	1.378797	0.000041
831.024109	1.378786	0.000041
832.604980	1.378775	0.000041
834.185730	1.378764	0.000040
835.766418	1.378753	0.000040
837.347046	1.378742	0.000040
838.927612	1.378731	0.000039
840.507996	1.378720	0.000039
842.088379	1.378709	0.000039
843.668640	1.378699	0.000038
845.248840	1.378688	0.000038
846.828979	1.378678	0.000038
848.408997	1.378667	0.000037
849.988953	1.378657	0.000037
851.568848	1.378646	0.000037
853.148621	1.378636	0.000037
854.728333	1.378626	0.000036
856.307922	1.378616	0.000036
857.887390	1.378606	0.000036
859.466797	1.378596	0.000035
861.046204	1.378586	0.000035
862.625488	1.378576	0.000035
864.204590	1.378566	0.000034
865.783691	1.378556	0.000034
867.362671	1.378546	0.000034
868.941589	1.378537	0.000034
870.520386	1.378527	0.000033
872.099121	1.378517	0.000033
873.677734	1.378508	0.000033
875.256226	1.378498	0.000033
876.834778	1.378489	0.000032
878.413086	1.378479	0.000032
879.991394	1.378470	0.000032
881.569519	1.378461	0.000032
883.147644	1.378452	0.000031
884.725586	1.378443	0.000031
886.303528	1.378433	0.000031
887.881348	1.378424	0.000031
889.458984	1.378415	0.000030
891.036621	1.378406	0.000030
892.614136	1.378397	0.000030
894.191589	1.378389	0.000030
895.768860	1.378380	0.000029
897.346069	1.378371	0.000029
898.923218	1.378362	0.000029
900.500305	1.378353	0.000029
902.077271	1.378345	0.000029
903.653992	1.378336	0.000028
905.230774	1.378328	0.000028
906.807434	1.378319	0.000028
908.383972	1.378311	0.000028
909.960327	1.378302	0.000028
911.536743	1.378294	0.000027
913.112976	1.378286	0.000027
914.689087	1.378278	0.000027
916.265137	1.378269	0.000027
917.841003	1.378261	0.000027
919.416870	1.378253	0.000026
920.992554	1.378245	0.000026
922.568237	1.378237	0.000026
924.143738	1.378229	0.000026
925.719116	1.378221	0.000026
927.294556	1.378213	0.000025
928.869751	1.378205	0.000025
930.444824	1.378197	0.000025
932.019836	1.378190	0.000025
933.594604	1.378182	0.000025
935.169434	1.378174	0.000025
936.744141	1.378166	0.000024
938.318726	1.378159	0.000024
939.893188	1.378151	0.000024
941.467468	1.378144	0.000024
943.041809	1.378136	0.000024
944.615906	1.378129	0.000024
946.189941	1.378121	0.000023
947.763855	1.378114	0.000023
949.337585	1.378106	0.000023
950.911316	1.378099	0.000023
952.484985	1.378092	0.000023
954.058411	1.378085	0.000023
955.631714	1.378077	0.000022
957.204956	1.378070	0.000022
958.778137	1.378063	0.000022
960.351196	1.378056	0.000022
961.924011	1.378049	0.000022
963.496887	1.378042	0.000022
965.069519	1.378035	0.000021
966.642090	1.378028	0.000021
968.214539	1.378021	0.000021
969.786926	1.378014	0.000021
971.359070	1.378007	0.000021
972.931274	1.378001	0.000021
974.503235	1.377994	0.000021
976.075073	1.377987	0.000021
977.646790	1.377980	0.000020
979.218445	1.377974	0.000020
980.789917	1.377967	0.000020
982.361328	1.377960	0.000020
983.932617	1.377954	0.000020
985.503784	1.377947	0.000020
987.074829	1.377941	0.000020
988.645691	1.377934	0.000019
990.216492	1.377928	0.000019
991.787231	1.377921	0.000019
993.357727	1.377915	0.000019
994.928223	1.377909	0.000019
996.498413	1.377903	0.000019
998.068665	1.377896	0.000019
999.638794	1.377890	0.000019
1012.848328	1.377838	0.000018
1016.217773	1.377826	0.000017
1019.587708	1.377813	0.000017
1022.958313	1.377800	0.000017
1026.329468	1.377788	0.000017
1029.701294	1.377776	0.000016
1033.073608	1.377764	0.000016
1036.446533	1.377752	0.000016
1039.820190	1.377740	0.000016
1043.194336	1.377728	0.000016
1046.569092	1.377716	0.000015
1049.944458	1.377705	0.000015
1053.320435	1.377693	0.000015
1056.697021	1.377682	0.000015
1060.074097	1.377670	0.000015
1063.451904	1.377659	0.000014
1066.830200	1.377648	0.000014
1070.209106	1.377637	0.000014
1073.588623	1.377626	0.000014
1076.968750	1.377616	0.000014
1080.349487	1.377605	0.000014
1083.730835	1.377595	0.000013
1087.112793	1.377584	0.000013
1090.495239	1.377574	0.000013
1093.878418	1.377563	0.000013
1097.262085	1.377553	0.000013
1100.646362	1.377543	0.000013
1104.031250	1.377533	0.000013
1107.416748	1.377524	0.000012
1110.802856	1.377514	0.000012
1114.189575	1.377504	0.000012
1117.576904	1.377494	0.000012
1120.964722	1.377485	0.000012
1124.353271	1.377476	0.000012
1127.742310	1.377466	0.000012
1131.131958	1.377457	0.000011
1134.522217	1.377448	0.000011
1137.913086	1.377439	0.000011
1141.304565	1.377430	0.000011
1144.696533	1.377421	0.000011
1148.089233	1.377412	0.000011
1151.482544	1.377403	0.000011
1154.876343	1.377394	0.000011
1158.270752	1.377386	0.000010
1161.665771	1.377377	0.000010
1165.061523	1.377369	0.000010
1168.457764	1.377360	0.000010
1171.854492	1.377352	0.000010
1175.251953	1.377344	0.000010
1178.650024	1.377336	0.000010
1182.048584	1.377328	0.000010
1185.447876	1.377319	0.000010
1188.847656	1.377312	0.000009
1192.248047	1.377304	0.000009
1195.649048	1.377296	0.000009
1199.050537	1.377288	0.000009
1202.452881	1.377280	0.000009
1205.855591	1.377273	0.000009
1209.259033	1.377265	0.000009
1212.662964	1.377258	0.000009
1216.067627	1.377250	0.000009
1219.472778	1.377243	0.000009
1222.878540	1.377236	0.000009
1226.284912	1.377228	0.000008
1229.691772	1.377221	0.000008
1233.099365	1.377214	0.000008
1236.507568	1.377207	0.000008
1239.916260	1.377200	0.000008
1243.325562	1.377193	0.000008
1246.735596	1.377186	0.000008
1250.146118	1.377179	0.000008
1253.557251	1.377172	0.000008
1256.968994	1.377166	0.000008
1260.381226	1.377159	0.000008
1263.794189	1.377152	0.000008
1267.207764	1.377146	0.000008
1270.621826	1.377139	0.000007
1274.036499	1.377133	0.000007
1277.451904	1.377126	0.000007
1280.867676	1.377120	0.000007
1284.284180	1.377113	0.000007
1287.701294	1.377107	0.000007
1291.119019	1.377101	0.000007
1294.537354	1.377095	0.000007
1297.956177	1.377089	0.000007
1301.375610	1.377083	0.000007
1304.795654	1.377077	0.000007
1308.216431	1.377071	0.000007
1311.637573	1.377065	0.000007
1315.059448	1.377059	0.000007
1318.481934	1.377053	0.000007
1321.905029	1.377047	0.000006
1325.328613	1.377041	0.000006
1328.752808	1.377036	0.000006
1332.177734	1.377030	0.000006
1335.603149	1.377024	0.000006
1339.029175	1.377019	0.000006
1342.455811	1.377013	0.000006
1345.883057	1.377008	0.000006
1349.310791	1.377002	0.000006
1352.739258	1.376997	0.000006
1356.168213	1.376992	0.000006
1359.597900	1.376986	0.000006
1363.028076	1.376981	0.000006
1366.458740	1.376976	0.000006
1369.890259	1.376970	0.000006
1373.322144	1.376965	0.000006
1376.754761	1.376960	0.000006
1380.187866	1.376955	0.000006
1383.621704	1.376950	0.000006
1387.056030	1.376945	0.000006
1390.490967	1.376940	0.000005
1393.926514	1.376935	0.000005
1397.362671	1.376930	0.000005
1400.799438	1.376925	0.000005
1404.236816	1.376920	0.000005
1407.674683	1.376916	0.000005
1411.113281	1.376911	0.000005
1414.552368	1.376906	0.000005
1417.992065	1.376901	0.000005
1421.432373	1.376897	0.000005
1424.873291	1.376892	0.000005
1428.314819	1.376887	0.000005
1431.756958	1.376883	0.000005
1435.199585	1.376878	0.000005
1438.642944	1.376874	0.000005
1442.086792	1.376869	0.000005
1445.531372	1.376865	0.000005
1448.976318	1.376860	0.000005
1452.422119	1.376856	0.000005
1455.868408	1.376852	0.000005
1459.315186	1.376848	0.000005
1462.762695	1.376843	0.000005
1466.210693	1.376839	0.000005
1469.659424	1.376835	0.000005
1473.108643	1.376830	0.000005
1476.558350	1.376826	0.000004
1480.008911	1.376822	0.000004
1483.459839	1.376818	0.000004
1486.911499	1.376814	0.000004
1490.363770	1.376810	0.000004
1493.816650	1.376806	0.000004
1497.270020	1.376802	0.000004
1500.723999	1.376798	0.000004
1504.178589	1.376794	0.000004
1507.633789	1.376790	0.000004
1511.089600	1.376786	0.000004
1514.546021	1.376782	0.000004
1518.002930	1.376778	0.000004
1521.460571	1.376775	0.000004
1524.918701	1.376771	0.000004
1528.377441	1.376767	0.000004
1531.836792	1.376763	0.000004
1535.296753	1.376760	0.000004
1538.757324	1.376756	0.000004
1542.218506	1.376752	0.000004
1545.680176	1.376749	0.000004
1549.142456	1.376745	0.000004
1552.605469	1.376741	0.000004
1556.068970	1.376738	0.000004
1559.533081	1.376734	0.000004
1562.997803	1.376731	0.000004
1566.463135	1.376727	0.000004
1569.928955	1.376724	0.000004
1573.395508	1.376720	0.000004
1576.862549	1.376717	0.000004
1580.330322	1.376714	0.000004
1583.798584	1.376710	0.000004
1587.267456	1.376707	0.000004
1590.736938	1.376703	0.000004
1594.207031	1.376700	0.000004
1597.677612	1.376697	0.000004
1601.148926	1.376693	0.000003
1604.620850	1.376690	0.000003
1608.093140	1.376687	0.000003
1611.566162	1.376684	0.000003
1615.039795	1.376681	0.000003
1618.514038	1.376677	0.000003
1621.989014	1.376674	0.000003
1625.464355	1.376671	0.000003
1628.940308	1.376668	0.000003
1632.416992	1.376665	0.000003
1635.894165	1.376662	0.000003
1639.371826	1.376659	0.000003
1642.850342	1.376656	0.000003
1646.329346	1.376653	0.000003
1649.808960	1.376650	0.000003
1653.289063	1.376647	0.000003
1656.769897	1.376644	0.000003
1660.251221	1.376641	0.000003
1663.733154	1.376638	0.000003
1667.215820	1.376635	0.000003
1670.698853	1.376632	0.000003
1674.182617	1.376629	0.000003
1677.666992	1.376626	0.000003
1681.151978	1.376624	0.000003
1684.637451	1.376621	0.000003
1688.123413	1.376618	0.000003